timestamps,TP9,AF7,AF8,TP10,Right AUX,Marker0
1005.532,-168.945,-384.766,-838.379,-429.688,-659.180,0
1005.536,-828.125,-1000.000,-994.141,722.168,-989.746,0
1005.540,98.145,-728.027,-915.039,-429.688,-714.355,0
1005.544,-1000.000,-15.625,-728.027,-1000.000,-375.488,0
1005.548,-351.074,-209.961,-792.969,-937.500,-491.699,0
1005.552,-844.238,-957.031,-984.375,458.008,-870.117,0
1005.556,280.762,-873.535,-954.590,270.020,-828.125,0
1005.560,-1000.000,-147.949,-664.062,-1000.000,16.113,0
1005.564,-852.051,-8.789,-656.738,-1000.000,-49.316,0
1005.568,767.090,-722.168,-944.336,37.598,-824.707,0
1005.572,608.398,-1000.000,-996.582,341.309,-993.164,0
1005.575,-936.035,-409.668,-817.871,-970.215,-526.855,0
1005.579,-1000.000,62.500,-666.504,-1000.000,-237.305,0
1005.583,78.613,-494.629,-861.328,-113.281,-707.520,0
1005.587,-895.996,-1000.000,-1000.000,704.102,-1000.000,0
1005.591,-302.734,-639.160,-897.949,-686.523,-790.039,0
1005.595,-1000.000,30.762,-675.293,-1000.000,-301.270,0
1005.599,-182.617,-343.262,-765.137,-528.809,-339.844,0
1005.603,-810.059,-1000.000,-993.652,925.293,-928.223,0
1005.607,248.047,-779.785,-935.547,25.391,-835.938,0
1005.611,-1000.000,-92.285,-756.836,-1000.000,-558.105,0
1005.614,-467.285,-165.527,-738.770,-996.582,-298.340,0
1005.618,-876.465,-882.812,-933.105,404.297,-512.695,0
1005.622,283.691,-934.082,-980.469,336.914,-965.820,0
1005.626,-1000.000,-271.973,-794.434,-1000.000,-647.461,0
1005.630,-951.660,-8.301,-713.867,-1000.000,-525.391,0
1005.634,582.031,-642.090,-899.414,44.922,-781.250,0
1005.638,788.086,-1000.000,-1000.000,497.070,-993.652,0
1005.642,-791.992,-502.930,-863.281,-905.762,-756.836,0
1005.646,-1000.000,47.852,-668.945,-1000.000,-323.730,0
1005.650,-46.875,-446.777,-809.082,-187.012,-589.844,0
1005.654,-826.172,-1000.000,-1000.000,960.938,-944.824,0
1005.657,-82.031,-689.941,-914.062,-336.914,-724.121,0
1005.661,-1000.000,-17.578,-746.094,-1000.000,-555.664,0
1005.665,-192.383,-329.590,-824.707,-615.723,-711.914,0
1005.669,-801.758,-1000.000,-987.793,898.438,-982.422,0
1005.673,276.367,-818.359,-949.219,183.105,-908.203,0
1005.677,-1000.000,-122.559,-737.305,-1000.000,-495.117,0
1005.681,-570.801,-114.746,-730.957,-1000.000,-426.270,0
1005.685,-922.852,-841.309,-964.844,340.820,-920.898,0
1005.689,411.621,-958.008,-965.820,369.141,-865.723,0
1005.693,-1000.000,-303.711,-763.184,-1000.000,-400.391,0
1005.697,-1000.000,29.297,-667.480,-1000.000,-286.621,0
1005.700,356.445,-571.289,-862.305,-12.695,-633.789,0
1005.704,939.453,-1000.000,-1000.000,646.973,-1000.000,0
1005.708,-605.957,-528.320,-812.012,-789.551,-503.906,0
1005.712,-1000.000,87.891,-598.145,-1000.000,-16.113,0
1005.716,-162.109,-417.480,-825.684,-248.535,-676.758,0
1005.720,-829.102,-1000.000,-1000.000,-973.145,-1000.000,0
1005.724,48.828,-714.355,-914.551,-164.551,-831.055,0
1005.728,-1000.000,-14.160,-719.727,-1000.000,-454.102,0
1005.732,-235.840,-270.020,-800.781,-719.727,-598.633,0
1005.736,-807.129,-996.094,-988.770,818.848,-991.699,0
1005.739,273.926,-847.168,-946.777,287.109,-840.820,0
1005.743,-1000.000,-152.344,-742.676,-1000.000,-394.531,0
1005.747,-717.285,-35.645,-652.344,-1000.000,-48.828,0
1005.751,938.477,-747.070,-888.184,223.633,-539.551,0
1005.755,542.480,-1000.000,-999.023,374.512,-1000.000,0
1005.759,-967.773,-385.254,-846.680,-995.117,-708.496,0
1005.763,-1000.000,41.504,-709.961,-1000.000,-437.988,0
1005.767,201.172,-513.672,-848.633,-64.941,-637.695,0
1005.771,-934.570,-1000.000,-1000.000,759.277,-1000.000,0
1005.775,-404.297,-595.703,-885.742,-662.109,-784.668,0
1005.779,-1000.000,51.758,-714.355,-1000.000,-502.930,0
1005.782,-175.781,-373.535,-828.125,-331.543,-629.883,0
1005.786,-815.918,-1000.000,-996.582,-936.035,-963.867,0
1005.790,166.016,-745.605,-915.527,0.488,-788.574,0
1005.794,-1000.000,-25.391,-698.730,-1000.000,-301.758,0
1005.798,-369.629,-197.266,-765.137,-880.859,-463.867,0
1005.802,-843.262,-945.801,-980.469,624.512,-916.016,0
1005.806,279.785,-894.531,-966.797,333.496,-848.145,0
1005.810,-1000.000,-217.773,-802.246,-1000.000,-582.031,0
1005.814,-865.234,-31.250,-760.742,-1000.000,-549.805,0
1005.818,743.164,-696.777,-934.570,96.191,-838.867,0
1005.822,664.551,-1000.000,-992.676,456.055,-981.445,0
1005.825,-902.344,-437.012,-854.492,-938.477,-712.402,0
1005.829,-1000.000,66.406,-707.031,-1000.000,-452.637,0
1005.833,49.805,-466.309,-841.309,-106.934,-629.395,0
1005.837,-849.609,-1000.000,-1000.000,876.953,-1000.000,0
1005.841,-206.543,-607.422,-815.918,-492.676,-422.852,0
1005.845,-1000.000,76.660,-630.371,-1000.000,-87.402,0
1005.849,-186.523,-333.496,-828.613,-513.672,-696.289,0
1005.853,-806.152,-1000.000,-998.535,941.895,-1000.000,0
1005.857,272.949,-770.020,-907.715,69.336,-724.121,0
1005.861,-1000.000,-49.805,-703.125,-1000.000,-331.543,0
1005.864,-503.906,-141.602,-779.785,-992.676,-568.848,0
1005.868,-889.648,-883.301,-971.191,439.941,-912.598,0
1005.872,312.012,-935.059,-977.051,343.262,-946.777,0
1005.876,-1000.000,-251.465,-769.043,-1000.000,-469.238,0
1005.880,-988.770,41.992,-648.438,-1000.000,-174.316,0
1005.884,527.832,-608.887,-880.371,36.621,-647.949,0
1005.888,800.781,-1000.000,-999.023,571.289,-988.281,0
1005.892,-775.391,-504.883,-870.117,-862.793,-768.066,0
1005.896,-1000.000,87.402,-627.930,-1000.000,-163.086,0
1005.900,-106.445,-402.832,-738.281,-182.129,-256.348,0
1005.904,-837.402,-1000.000,-1000.000,994.141,-1000.000,0
1005.907,-62.012,-686.035,-905.273,-277.832,-833.496,0
1005.911,-1000.000,20.508,-690.918,-1000.000,-456.543,0
1005.915,-191.895,-278.320,-768.066,-611.816,-499.023,0
1005.919,-801.758,-1000.000,-986.328,923.340,-921.387,0
1005.923,276.367,-823.242,-943.359,232.422,-891.113,0
1005.927,-1000.000,-107.910,-691.406,-1000.000,-350.098,0
1005.931,-610.352,-84.961,-692.383,-1000.000,-289.551,0
1005.935,-946.777,-812.988,-945.801,291.992,-667.480,0
1005.939,433.105,-978.516,-984.375,396.973,-904.785,0
1005.943,-1000.000,-340.332,-812.988,-1000.000,-676.758,0
1005.947,-1000.000,33.691,-687.500,-1000.000,-416.992,0
1005.950,292.480,-556.152,-866.699,-35.645,-708.984,0
1005.954,958.984,-1000.000,-1000.000,719.238,-1000.000,0
1005.958,-577.148,-565.430,-873.535,-715.820,-754.883,0
1005.962,-1000.000,53.711,-699.707,-1000.000,-471.680,0
1005.966,-166.504,-400.879,-823.242,-270.996,-695.801,0
1005.970,-829.590,-1000.000,-1000.000,-937.988,-1000.000,0
1005.974,64.941,-713.867,-896.973,-64.453,-718.750,0
1005.978,-1000.000,16.602,-660.156,-1000.000,-249.512,0
1005.982,-281.738,-214.355,-742.676,-764.648,-357.910,0
1005.986,-821.289,-981.445,-996.582,778.320,-937.500,0
1005.989,279.297,-841.797,-903.809,295.898,-670.898,0
1005.993,-1000.000,-125.488,-663.574,-1000.000,-75.684,0
1005.997,-748.535,-41.016,-744.141,-1000.000,-477.539,0
1006.001,902.344,-746.094,-953.125,178.223,-894.043,0
1006.005,579.590,-1000.000,-985.352,428.223,-963.379,0
1006.009,-946.777,-380.371,-822.266,-966.797,-585.938,0
1006.013,-1000.000,63.965,-707.520,-1000.000,-430.176,0
1006.017,154.785,-502.441,-874.512,-71.289,-772.461,0
1006.021,-919.922,-1000.000,-1000.000,795.898,-1000.000,0
1006.025,-369.141,-600.098,-875.977,-611.816,-659.180,0
1006.029,-1000.000,102.051,-610.840,-1000.000,25.879,0
1006.032,-178.223,-326.172,-753.418,-372.559,-267.090,0
1006.036,-813.477,-1000.000,-1000.000,-951.660,-990.234,0
1006.040,198.242,-756.836,-934.570,19.043,-891.602,0
1006.044,-1000.000,-26.855,-726.562,-1000.000,-442.871,0
1006.048,-401.855,-163.086,-758.789,-889.648,-448.730,0
1006.052,-852.539,-926.270,-979.492,612.793,-942.383,0
1006.056,281.738,-906.738,-966.309,336.426,-921.387,0
1006.060,-1000.000,-221.191,-789.551,-1000.000,-626.953,0
1006.064,-889.160,17.578,-690.430,-1000.000,-384.277,0
1006.068,704.102,-649.902,-884.766,126.465,-641.602,0
1006.072,699.219,-1000.000,-999.023,562.500,-990.234,0
1006.075,-876.953,-454.590,-835.938,-897.461,-637.207,0
1006.079,-1000.000,64.453,-701.172,-1000.000,-487.793,0
1006.083,-5.859,-460.938,-849.121,-125.977,-613.281,0
1006.087,-839.355,-1000.000,-1000.000,-978.516,-890.625,0
1006.091,-159.668,-659.668,-889.160,-279.785,-779.297,0
1006.095,-1000.000,31.250,-687.500,-1000.000,-386.719,0
1006.099,-187.012,-329.102,-809.570,-437.988,-676.758,0
1006.103,-804.688,-1000.000,-992.676,-928.223,-1000.000,0
1006.107,276.855,-800.293,-936.035,235.352,-876.465,0
1006.111,-1000.000,-96.191,-728.027,-1000.000,-571.289,0
1006.114,-520.508,-120.605,-708.984,-935.547,-431.152,0
1006.118,-893.555,-860.840,-956.055,607.422,-840.332,0
1006.122,362.305,-947.266,-932.129,446.289,-734.375,0
1006.126,-1000.000,-287.109,-719.238,-1000.000,-348.145,0
1006.130,-1000.000,0.000,-694.824,-1000.000,-556.641,0
1006.134,453.125,-612.305,-892.578,37.598,-836.426,0
1006.138,849.121,-1000.000,-986.816,860.840,-947.754,0
1006.142,-719.727,-537.109,-823.730,-605.469,-642.090,0
1006.146,-1000.000,32.227,-675.293,-1000.000,-492.188,0
1006.150,-137.207,-445.801,-819.336,-161.133,-722.656,0
1006.154,-840.820,-1000.000,-1000.000,-855.957,-1000.000,0
1006.157,-37.598,-704.102,-873.535,19.531,-708.496,0
1006.161,-1000.000,-6.836,-624.023,-1000.000,-192.383,0
1006.165,-199.707,-293.945,-746.094,-488.281,-390.625,0
1006.169,-802.734,-1000.000,-981.445,-925.293,-884.277,0
1006.173,273.438,-849.121,-958.008,283.691,-962.402,0
1006.177,-1000.000,-137.207,-664.062,-1000.000,-261.719,0
1006.181,-672.852,-60.059,-601.074,-1000.000,-14.648,0
1006.185,988.770,-801.270,-933.105,479.980,-805.664,0
1006.189,473.145,-993.164,-985.840,526.855,-983.887,0
1006.193,-996.582,-351.074,-776.855,-957.520,-599.121,0
1006.197,-1000.000,56.152,-635.742,-1000.000,-356.445,0
1006.200,243.652,-532.715,-843.262,-50.293,-698.730,0
1006.204,977.539,-1000.000,-1000.000,935.059,-1000.000,0
1006.208,-544.434,-563.477,-824.219,-468.262,-561.523,0
1006.212,-1000.000,100.586,-604.980,-1000.000,-155.273,0
1006.216,-168.945,-352.539,-750.488,-200.195,-202.148,0
1006.220,-826.660,-1000.000,-993.164,-860.352,-783.203,0
1006.224,97.656,-729.980,-920.410,56.152,-870.605,0
1006.228,-1000.000,3.418,-715.332,-1000.000,-455.078,0
1006.232,-324.707,-190.430,-784.180,-681.641,-459.473,0
1006.236,-833.496,-957.031,-980.957,910.156,-818.848,0
1006.239,278.809,-867.676,-958.496,299.316,-909.180,0
1006.243,-1000.000,-142.090,-767.578,-1000.000,-507.324,0
1006.247,-819.824,32.227,-726.562,-1000.000,-415.527,0
1006.251,809.082,-687.012,-929.199,183.105,-795.410,0
1006.255,603.027,-1000.000,-994.629,530.762,-957.520,0
1006.259,-936.035,-354.980,-797.363,-925.781,-433.105,0
1006.263,-1000.000,150.391,-652.832,-1000.000,-190.918,0
1006.267,99.121,-448.730,-858.887,-114.746,-729.980,0
1006.271,-911.621,-1000.000,-994.141,980.957,-872.559,0
1006.275,-336.914,-583.496,-841.797,-357.910,-370.605,0
1006.279,-1000.000,125.488,-687.988,-1000.000,-329.102,0
1006.282,-179.688,-297.852,-817.871,-374.512,-652.832,0
1006.286,-812.988,-1000.000,-994.629,-907.227,-996.094,0
1006.290,218.262,-750.000,-916.016,189.453,-769.531,0
1006.294,-1000.000,2.441,-713.379,-1000.000,-417.969,0
1006.298,-456.055,-118.652,-767.578,-829.590,-504.883,0
1006.302,-875.000,-898.438,-976.074,750.000,-871.582,0
1006.306,283.203,-917.480,-961.426,365.234,-891.602,0
1006.310,-1000.000,-181.641,-669.434,-1000.000,-91.309,0
1006.314,-957.031,59.082,-624.023,-1000.000,-95.215,0
1006.318,597.656,-643.066,-917.969,149.414,-831.055,0
1006.322,714.844,-1000.000,-1000.000,727.051,-1000.000,0
1006.325,-871.094,-462.402,-816.895,-781.738,-630.371,0
1006.329,-1000.000,104.492,-605.957,-1000.000,-217.285,0
1006.333,-42.969,-433.105,-794.434,-145.996,-597.656,0
1006.337,-833.984,-1000.000,-1000.000,-896.484,-1000.000,0
1006.341,-112.793,-671.875,-895.508,-112.793,-845.215,0
1006.345,-1000.000,40.527,-644.043,-1000.000,-377.930,0
1006.349,-189.941,-293.457,-729.004,-402.344,-398.438,0
1006.353,-803.223,-1000.000,-991.211,-893.555,-949.219,0
1006.357,276.367,-814.453,-933.105,272.461,-885.742,0
1006.361,-1000.000,-128.906,-733.887,-1000.000,-633.301,0
1006.364,-566.895,-135.254,-687.988,-874.023,-348.145,0
1006.368,-920.410,-842.285,-895.996,713.379,-541.504,0
1006.372,385.254,-975.098,-985.840,471.680,-985.840,0
1006.376,-1000.000,-351.074,-798.340,-990.234,-707.520,0
1006.380,-1000.000,-34.180,-699.707,-1000.000,-584.473,0
1006.384,381.348,-616.211,-883.789,54.199,-815.430,0
1006.388,922.852,-1000.000,-991.699,957.520,-978.027,0
1006.392,-629.883,-575.684,-827.148,-494.141,-741.699,0
1006.396,-1000.000,5.371,-624.023,-1000.000,-428.223,0
1006.400,-145.020,-448.242,-778.809,-166.016,-645.508,0
1006.404,-822.266,-1000.000,-1000.000,-836.426,-975.586,0
1006.407,46.875,-737.305,-903.320,94.238,-861.816,0
1006.411,-1000.000,-80.078,-700.684,-1000.000,-702.637,0
1006.415,-201.660,-335.938,-788.574,-505.371,-813.477,0
1006.419,-795.410,-1000.000,-988.281,-925.293,-990.723,0
1006.423,273.926,-865.234,-945.801,289.062,-934.082,0
1006.427,-1000.000,-222.168,-749.023,-1000.000,-732.422,0
1006.431,-633.789,-146.484,-738.281,-1000.000,-734.863,0
1006.435,-972.168,-808.105,-951.172,479.492,-967.285,0
1006.439,551.270,-1000.000,-967.285,642.578,-917.480,0
1006.443,-958.984,-400.879,-761.719,-892.090,-561.035,0
1006.447,-1000.000,10.254,-656.738,-1000.000,-443.848,0
1006.450,242.188,-545.410,-851.562,-55.664,-737.305,0
1006.454,-909.668,-1000.000,-1000.000,988.281,-1000.000,0
1006.458,-374.512,-594.727,-827.148,-384.277,-610.840,0
1006.462,-1000.000,66.406,-607.910,-1000.000,-211.914,0
1006.466,-180.664,-385.254,-820.312,-248.047,-766.602,0
1006.470,-807.129,-1000.000,-1000.000,-858.887,-1000.000,0
1006.474,214.355,-747.070,-925.293,138.672,-896.973,0
1006.478,-1000.000,-22.461,-736.328,-1000.000,-626.953,0
1006.482,-303.223,-195.801,-798.828,-727.539,-724.121,0
1006.486,-811.035,-953.125,-984.863,869.629,-1000.000,0
1006.489,274.902,-885.254,-955.566,324.707,-891.602,0
1006.493,-1000.000,-179.688,-768.066,-1000.000,-546.875,0
1006.497,-768.555,32.715,-663.086,-1000.000,-217.773,0
1006.501,866.211,-668.457,-879.883,243.164,-618.652,0
1006.505,684.570,-1000.000,-1000.000,623.535,-1000.000,0
1006.509,-886.230,-424.316,-856.445,-886.230,-732.910,0
1006.513,-1000.000,80.566,-738.281,-1000.000,-544.922,0
1006.517,103.027,-459.961,-861.816,-126.953,-722.656,0
1006.521,-817.871,-1000.000,-997.070,-953.125,-1000.000,0
1006.525,-160.156,-637.207,-910.645,-247.070,-868.652,0
1006.529,-1000.000,58.594,-756.836,-1000.000,-655.273,0
1006.532,-189.941,-321.289,-842.773,-329.102,-741.699,0
1006.536,-800.781,-1000.000,-994.141,-870.117,-987.793,0
1006.540,274.902,-774.902,-924.316,239.258,-839.355,0
1006.544,-1000.000,-50.781,-741.699,-1000.000,-521.484,0
1006.548,-436.523,-146.484,-802.734,-840.332,-712.891,0
1006.552,-853.027,-893.066,-976.562,753.418,-963.867,0
1006.556,345.215,-937.500,-972.168,401.367,-931.641,0
1006.560,-1000.000,-269.043,-814.941,-1000.000,-747.070,0
1006.564,-954.590,2.441,-741.699,-1000.000,-676.270,0
1006.568,587.891,-632.812,-914.551,117.676,-877.441,0
1006.572,826.660,-1000.000,-995.605,866.699,-992.676,0
1006.575,-747.070,-520.020,-864.746,-634.766,-830.078,0
1006.579,-1000.000,47.363,-681.152,-1000.000,-537.598,0
1006.583,-48.340,-443.359,-806.641,-167.969,-661.621,0
1006.587,-821.289,-1000.000,-1000.000,-832.031,-1000.000,0
1006.591,-65.430,-672.852,-812.500,104.980,-544.434,0
1006.595,-1000.000,14.160,-611.816,-1000.000,-252.930,0
1006.599,-193.848,-332.520,-808.594,-386.719,-776.855,0
1006.603,-800.781,-1000.000,-997.070,-862.793,-1000.000,0
1006.607,276.367,-818.848,-913.086,267.090,-815.918,0
1006.611,-1000.000,-128.906,-685.547,-1000.000,-494.141,0
1006.614,-580.078,-132.812,-729.004,-867.676,-682.617,0
1006.618,-929.199,-840.820,-953.125,722.656,-938.965,0
1006.622,455.078,-986.328,-976.074,592.773,-986.328,0
1006.626,-1000.000,-342.773,-754.395,-937.988,-617.188,0
1006.630,-1000.000,34.180,-610.840,-1000.000,-312.988,0
1006.634,352.539,-570.801,-844.727,75.684,-710.449,0
1006.638,981.445,-1000.000,-999.023,-938.477,-1000.000,0
1006.642,-551.758,-586.426,-881.836,-346.191,-888.672,0
1006.646,-1000.000,57.617,-644.531,-1000.000,-379.883,0
1006.650,-161.133,-384.766,-740.723,-175.781,-417.969,0
1006.654,-813.477,-1000.000,-1000.000,-820.801,-1000.000,0
1006.657,121.094,-731.445,-924.316,174.805,-916.016,0
1006.661,-1000.000,-20.508,-749.023,-1000.000,-681.152,0
1006.665,-210.449,-248.047,-807.129,-522.461,-717.773,0
1006.669,-790.039,-988.770,-981.445,-923.828,-971.191,0
1006.673,272.461,-862.305,-960.938,297.363,-943.848,0
1006.677,-1000.000,-143.555,-757.812,-1000.000,-548.340,0
1006.681,-631.348,-17.090,-745.117,-1000.000,-497.070,0
1006.685,-974.609,-741.699,-951.172,473.633,-844.238,0
1006.689,605.469,-1000.000,-988.770,636.719,-983.887,0
1006.693,-926.270,-384.277,-866.211,-896.484,-812.500,0
1006.697,-1000.000,71.289,-768.066,-1000.000,-693.359,0
1006.700,213.379,-500.000,-900.879,-92.285,-869.629,0
1006.704,-860.840,-1000.000,-996.582,-947.266,-1000.000,0
1006.708,-278.320,-609.375,-905.762,-270.996,-849.121,0
1006.712,-1000.000,59.082,-763.184,-1000.000,-622.559,0
1006.716,-182.617,-365.234,-850.098,-242.188,-768.066,0
1006.720,-807.617,-1000.000,-996.582,-836.426,-1000.000,0
1006.724,219.727,-752.441,-910.156,235.840,-773.438,0
1006.728,-1000.000,-32.227,-711.914,-1000.000,-364.746,0
1006.732,-385.742,-200.684,-788.574,-682.617,-575.195,0
1006.736,-843.262,-948.730,-996.094,946.777,-1000.000,0
1006.739,279.297,-896.484,-905.762,398.926,-708.008,0
1006.743,-1000.000,-206.543,-664.062,-1000.000,-139.160,0
1006.747,-876.465,-20.508,-676.758,-1000.000,-342.285,0
1006.751,726.562,-691.406,-911.133,290.039,-802.734,0
1006.755,676.758,-1000.000,-990.723,822.266,-995.605,0
1006.759,-889.160,-467.285,-780.762,-719.238,-592.285,0
1006.763,-1000.000,45.410,-608.887,-1000.000,-365.723,0
1006.767,3.418,-480.469,-806.152,-146.973,-711.426,0
1006.771,-863.770,-1000.000,-1000.000,-840.820,-1000.000,0
1006.775,-209.473,-674.805,-849.121,19.531,-755.859,0
1006.779,-1000.000,27.832,-519.531,-1000.000,37.109,0
1006.782,-184.570,-333.008,-671.387,-289.551,-207.520,0
1006.786,-807.617,-1000.000,-1000.000,-829.102,-1000.000,0
1006.790,267.578,-808.105,-898.926,278.320,-806.641,0
1006.794,-1000.000,-122.559,-629.883,-1000.000,-311.035,0
1006.798,-530.273,-186.035,-667.969,-745.605,-353.516,0
1006.802,-904.297,-901.855,-957.031,889.160,-892.578,0
1006.806,314.453,-956.055,-953.125,510.254,-930.176,0
1006.810,-1000.000,-317.383,-734.375,-974.121,-583.984,0
1006.814,-1000.000,2.930,-613.770,-1000.000,-296.875,0
1006.818,456.543,-609.863,-825.195,201.660,-574.707,0
1006.822,837.402,-1000.000,-1000.000,902.344,-1000.000,0
1006.825,-737.793,-523.438,-811.035,-611.816,-635.742,0
1006.829,-1000.000,62.500,-624.023,-1000.000,-418.945,0
1006.833,-113.770,-428.223,-792.969,-162.598,-542.969,0
1006.837,-833.496,-1000.000,-1000.000,-845.215,-835.938,0
1006.841,-38.086,-693.848,-893.066,51.758,-838.867,0
1006.845,-1000.000,25.391,-689.941,-1000.000,-470.703,0
1006.849,-193.848,-272.949,-801.270,-456.543,-640.137,0
1006.853,-800.293,-1000.000,-987.793,-900.391,-985.840,0
1006.857,275.879,-827.637,-954.102,280.273,-890.625,0
1006.861,-1000.000,-107.910,-782.227,-1000.000,-540.039,0
1006.864,-603.516,-36.621,-751.465,-1000.000,-335.938,0
1006.868,-943.848,-785.156,-955.566,515.137,-785.156,0
1006.872,484.375,-977.051,-956.055,553.711,-763.672,0
1006.876,-1000.000,-292.480,-804.688,-942.871,-356.934,0
1006.880,-1000.000,104.492,-785.645,-1000.000,-544.434,0
1006.884,313.965,-513.672,-921.875,-41.992,-827.148,0
1006.888,-945.801,-1000.000,-989.746,892.578,-965.820,0
1006.892,-438.965,-523.438,-889.160,-520.996,-693.359,0
1006.896,-1000.000,164.551,-753.418,-1000.000,-520.508,0
1006.900,-172.363,-320.312,-851.074,-240.234,-729.004,0
1006.904,-813.477,-1000.000,-998.047,-893.555,-1000.000,0
1006.907,147.949,-694.336,-907.227,7.812,-729.492,0
1006.911,-1000.000,84.961,-729.492,-1000.000,-218.262,0
1006.915,-279.297,-150.391,-821.777,-696.777,-361.816,0
1006.919,-810.547,-958.984,-979.980,873.047,-880.859,0
1006.923,274.414,-856.445,-970.703,290.527,-882.812,0
1006.927,-1000.000,-91.309,-758.301,-1000.000,-119.629,0
1006.931,-759.277,54.688,-717.285,-1000.000,20.020,0
1006.935,889.648,-706.055,-953.613,249.023,-769.531,0
1006.939,592.285,-1000.000,-992.676,539.551,-998.047,0
1006.943,-935.547,-380.371,-862.793,-931.152,-616.699,0
1006.947,-1000.000,111.816,-709.473,-1000.000,-301.270,0
1006.950,119.629,-461.914,-853.027,-108.398,-643.066,0
1006.954,-928.711,-1000.000,-1000.000,977.539,-1000.000,0
1006.958,-370.117,-585.938,-844.727,-373.535,-559.570,0
1006.962,-1000.000,126.465,-593.750,-1000.000,-44.434,0
1006.966,-173.828,-302.734,-718.750,-283.203,-131.836,0
1006.970,-821.289,-1000.000,-992.188,-866.699,-834.961,0
1006.974,158.691,-763.672,-913.086,181.641,-815.918,0
1006.978,-1000.000,-34.668,-662.598,-1000.000,-321.289,0
1006.982,-495.605,-150.879,-676.270,-759.277,-184.570,0
1006.986,-901.855,-907.227,-930.176,845.215,-545.898,0
1006.989,282.715,-918.945,-957.520,347.168,-858.887,0
1006.993,-1000.000,-241.699,-709.961,-1000.000,-350.098,0
1006.997,-1000.000,-8.301,-603.027,-1000.000,-152.832,0
1007.001,462.402,-661.133,-857.910,184.570,-543.457,0
1007.005,615.234,-1000.000,-986.816,743.652,-800.781,0
1007.009,-920.410,-456.543,-707.031,-776.855,-264.160,0
1007.013,-1000.000,94.238,-488.281,-1000.000,19.531,0
1007.017,-107.422,-440.918,-751.465,-154.785,-529.785,0
1007.021,-972.168,-1000.000,-981.934,-875.000,-766.113,0
1007.025,-335.449,-651.367,-746.094,-55.176,-175.781,0
1007.029,-1000.000,63.477,-516.113,-1000.000,-62.500,0
1007.032,-174.805,-283.691,-685.547,-428.223,-343.262,0
1007.036,-818.359,-1000.000,-995.117,-901.367,-900.391,0
1007.040,217.773,-783.203,-863.281,260.742,-627.441,0
1007.044,-1000.000,-30.273,-542.480,-1000.000,-7.812,0
1007.048,-636.230,-51.758,-600.586,-952.148,-158.203,0
1007.052,-994.141,-828.125,-915.039,587.891,-635.742,0
1007.056,298.340,-950.195,-972.168,398.926,-852.539,0
1007.060,-1000.000,-200.195,-608.887,-1000.000,62.500,0
1007.064,-1000.000,158.691,-492.676,-1000.000,233.887,0
1007.068,303.223,-535.156,-841.797,14.648,-648.926,0
1007.072,764.160,-1000.000,-1000.000,708.008,-1000.000,0
1007.075,-808.594,-454.590,-789.551,-746.582,-468.750,0
1007.079,-1000.000,218.750,-547.852,-1000.000,-36.621,0
1007.083,-158.203,-323.242,-768.066,-198.242,-504.883,0
1007.087,-856.934,-1000.000,-1000.000,-948.242,-994.141,0
1007.091,-56.152,-645.508,-886.230,-163.086,-751.953,0
1007.095,-1000.000,187.012,-588.867,-1000.000,-157.715,0
1007.099,-267.090,-74.707,-664.551,-671.387,-99.609,0
1007.103,-828.613,-964.844,-983.887,859.863,-774.902,0
1007.107,280.762,-802.734,-922.852,302.246,-753.418,0
1007.111,-1000.000,8.789,-696.289,-1000.000,-394.043,0
1007.114,-737.305,128.906,-623.535,-1000.000,-146.973,0
1007.118,916.992,-673.828,-846.680,446.777,-387.695,0
1007.122,480.957,-985.840,-992.188,502.441,-966.797,0
1007.126,-997.559,-246.094,-786.133,-967.773,-614.746,0
1007.130,-1000.000,216.309,-646.484,-1000.000,-438.477,0
1007.134,216.309,-438.965,-836.914,-38.574,-712.891,0
1007.138,975.586,-1000.000,-1000.000,911.133,-1000.000,0
1007.142,-542.480,-524.414,-863.770,-514.648,-759.766,0
1007.146,-1000.000,208.008,-611.328,-1000.000,-285.645,0
1007.150,-169.434,-278.809,-753.906,-211.914,-540.039,0
1007.154,-827.148,-1000.000,-1000.000,-836.914,-918.457,0
1007.157,107.422,-716.309,-906.738,203.125,-762.695,0
1007.161,-1000.000,75.684,-651.367,-1000.000,-512.695,0
1007.165,-363.281,-117.188,-716.797,-589.844,-623.047,0
1007.169,-848.145,-940.430,-981.934,-973.145,-977.051,0
1007.173,281.738,-881.348,-937.012,376.953,-918.457,0
1007.177,-1000.000,-137.695,-687.988,-1000.000,-664.062,0
1007.181,-861.328,48.828,-615.234,-1000.000,-634.766,0
1007.185,754.395,-677.734,-886.719,425.293,-912.109,0
1007.189,610.840,-1000.000,-956.055,958.008,-932.617,0
1007.193,-933.105,-403.809,-672.852,-567.383,-563.965,0
1007.197,-1000.000,114.258,-500.000,-1000.000,-395.996,0
1007.200,69.336,-454.102,-741.211,-73.730,-677.246,0
1007.204,-913.574,-1000.000,-1000.000,-794.434,-1000.000,0
1007.208,-328.613,-629.883,-750.977,121.094,-617.188,0
1007.212,-1000.000,66.406,-428.711,-1000.000,-181.641,0
1007.216,-180.664,-360.840,-694.824,-215.820,-745.605,0
1007.220,-812.500,-1000.000,-1000.000,-783.203,-1000.000,0
1007.224,238.281,-803.223,-866.211,313.477,-909.180,0
1007.228,-1000.000,-113.281,-565.430,-1000.000,-671.387,0
1007.232,-485.352,-215.820,-609.375,-475.586,-750.000,0
1007.236,-887.207,-927.734,-934.082,-916.016,-992.676,0
1007.239,286.621,-950.684,-909.668,730.957,-924.805,0
1007.243,-1000.000,-307.129,-593.750,-848.145,-632.812,0
1007.247,-963.867,-10.254,-441.895,-914.551,-279.785,0
1007.251,563.477,-650.391,-744.629,586.426,-619.629,0
1007.255,786.133,-1000.000,-995.117,-865.234,-1000.000,0
1007.259,-798.340,-546.875,-754.395,-210.449,-899.414,0
1007.263,-1000.000,13.672,-539.551,-1000.000,-719.238,0
1007.267,-42.969,-459.961,-736.328,-93.262,-766.113,0
1007.271,-819.824,-1000.000,-1000.000,-774.902,-987.305,0
1007.275,-65.430,-710.938,-856.445,209.473,-946.777,0
1007.279,-1000.000,-25.391,-588.867,-1000.000,-725.098,0
1007.282,-193.848,-327.148,-688.477,-261.230,-711.426,0
1007.286,-799.316,-1000.000,-980.469,-791.992,-980.469,0
1007.290,276.367,-832.520,-902.832,347.168,-904.785,0
1007.294,-1000.000,-148.926,-670.410,-1000.000,-787.109,0
1007.298,-521.484,-146.973,-734.863,-736.328,-908.691,0
1007.302,-895.508,-852.539,-955.566,895.020,-969.727,0
1007.306,479.004,-984.863,-970.703,676.270,-961.914,0
1007.310,-1000.000,-354.980,-796.875,-848.145,-929.688,0
1007.314,-983.398,20.508,-715.332,-1000.000,-922.852,0
1007.318,490.723,-571.289,-893.066,108.398,-972.168,0
1007.322,-954.102,-1000.000,-997.070,-895.508,-972.168,0
1007.325,-456.543,-566.895,-875.977,-274.902,-962.402,0
1007.329,-1000.000,63.477,-725.586,-1000.000,-918.457,0
1007.333,-67.383,-399.414,-833.008,-183.105,-900.879,0
1007.337,-781.250,-1000.000,-1000.000,-807.617,-1000.000,0
1007.341,137.207,-701.172,-847.168,242.676,-671.875,0
1007.345,-1000.000,11.719,-696.289,-1000.000,-581.543,0
1007.349,-216.309,-272.461,-863.281,-470.215,-979.004,0
1007.353,-786.621,-1000.000,-989.746,-882.324,-996.094,0
1007.357,272.949,-857.422,-939.453,310.547,-887.695,0
1007.361,-1000.000,-173.828,-802.734,-1000.000,-809.082,0
1007.364,-570.312,-89.844,-841.309,-943.359,-955.566,0
1007.368,-937.500,-774.414,-965.820,571.777,-967.773,0
1007.372,641.602,-1000.000,-986.328,796.875,-993.164,0
1007.376,-917.480,-413.086,-848.145,-763.672,-853.027,0
1007.380,-1000.000,31.250,-731.445,-1000.000,-708.496,0
1007.384,315.918,-530.762,-895.020,-12.695,-908.203,0
1007.388,-816.895,-1000.000,-991.211,-827.637,-964.355,0
1007.392,-203.613,-645.508,-921.875,-60.059,-1000.000,0
1007.396,-1000.000,13.184,-713.379,-1000.000,-698.730,0
1007.400,-184.082,-379.395,-764.160,-192.383,-572.266,0
1007.404,-793.945,-1000.000,-994.141,-793.457,-985.840,0
1007.407,267.578,-787.109,-936.523,269.043,-982.910,0
1007.411,-1000.000,-128.418,-778.320,-1000.000,-944.824,0
1007.415,-289.551,-291.504,-814.453,-460.938,-927.246,0
1007.419,-797.852,-964.355,-979.492,-893.066,-963.379,0
1007.423,308.105,-937.012,-948.242,623.047,-983.398,0
1007.427,-1000.000,-320.801,-744.141,-968.750,-793.945,0
1007.431,-739.746,-135.742,-711.426,-842.285,-793.945,0
1007.435,881.348,-754.883,-918.945,655.762,-972.168,0
1007.439,778.320,-1000.000,-986.328,-859.375,-966.797,0
1007.443,-787.598,-573.730,-838.867,-224.609,-967.285,0
1007.447,-1000.000,-113.281,-721.680,-1000.000,-971.191,0
1007.450,134.277,-565.918,-859.863,101.562,-965.332,0
1007.454,-791.504,-1000.000,-1000.000,-738.770,-985.352,0
1007.458,-84.961,-727.051,-852.539,236.816,-902.344,0
1007.462,-1000.000,-137.207,-651.855,-1000.000,-869.141,0
1007.466,-196.777,-462.402,-798.828,-188.965,-969.727,0
1007.470,-793.945,-1000.000,-1000.000,-792.480,-979.492,0
1007.474,272.461,-859.863,-888.184,644.531,-956.543,0
1007.478,-1000.000,-261.719,-653.809,-946.289,-873.535,0
1007.482,-384.766,-335.449,-732.910,-333.496,-912.598,0
1007.486,-832.520,-951.660,-982.422,-942.383,-1000.000,0
1007.489,458.984,-973.145,-902.832,-889.648,-846.680,0
1007.493,-1000.000,-442.871,-657.227,-182.617,-685.059,0
1007.497,-832.520,-198.242,-718.750,-742.676,-937.500,0
1007.501,727.539,-740.723,-919.922,747.070,-991.699,0
1007.505,992.676,-1000.000,-988.281,-773.438,-957.031,0
1007.509,-522.461,-628.906,-826.172,111.328,-942.871,0
1007.513,-1000.000,-107.422,-703.613,-1000.000,-959.473,0
1007.517,65.918,-520.996,-858.398,33.203,-968.262,0
1007.521,-760.742,-1000.000,-996.582,-728.027,-970.703,0
1007.525,111.328,-759.277,-889.648,290.527,-966.797,0
1007.529,-1000.000,-110.840,-653.809,-1000.000,-607.910,0
1007.532,-217.773,-377.930,-773.438,-253.906,-678.223,0
1007.536,-782.227,-1000.000,-995.117,-780.762,-1000.000,0
1007.540,270.996,-874.512,-950.684,475.098,-979.980,0
1007.544,-1000.000,-234.375,-804.199,-1000.000,-902.832,0
1007.548,-423.828,-183.105,-820.312,-677.246,-864.258,0
1007.552,-861.328,-857.422,-974.609,944.336,-977.539,0
1007.556,619.629,-1000.000,-976.562,812.500,-967.285,0
1007.560,-977.051,-418.457,-899.414,-687.988,-987.305,0
1007.564,-884.277,-19.531,-836.914,-1000.000,-879.883,0
1007.568,627.441,-573.730,-924.316,132.812,-856.934,0
1007.572,-837.402,-1000.000,-990.723,-843.262,-1000.000,0
1007.575,-225.586,-597.168,-918.457,-166.504,-856.934,0
1007.579,-1000.000,26.367,-857.910,-1000.000,-822.266,0
1007.583,-13.184,-413.574,-935.059,-187.500,-966.797,0
1007.587,-751.465,-1000.000,-981.934,-809.570,-967.773,0
1007.591,240.234,-737.305,-957.031,207.031,-970.215,0
1007.595,-1000.000,-0.488,-875.977,-1000.000,-911.133,0
1007.599,-235.352,-226.074,-902.832,-573.242,-919.922,0
1007.603,-778.809,-981.445,-974.609,-957.520,-967.285,0
1007.607,294.434,-885.254,-979.980,341.309,-990.234,0
1007.611,-1000.000,-218.262,-910.645,-1000.000,-880.859,0
1007.614,-610.840,-20.508,-847.168,-1000.000,-645.020,0
1007.618,-958.984,-700.195,-952.637,408.691,-876.465,0
1007.622,662.598,-1000.000,-974.609,828.613,-855.957,0
1007.626,-881.836,-434.082,-883.789,-721.680,-611.816,0
1007.630,-1000.000,35.645,-834.961,-1000.000,-722.168,0
1007.634,182.617,-506.348,-922.852,-102.539,-869.629,0
1007.638,-818.848,-1000.000,-987.793,-840.332,-980.957,0
1007.642,-192.871,-666.504,-928.711,-34.180,-854.492,0
1007.646,-1000.000,0.000,-785.156,-1000.000,-689.453,0
1007.650,-187.988,-365.723,-839.844,-232.910,-789.551,0
1007.654,-802.246,-1000.000,-997.070,-810.547,-1000.000,0
1007.657,264.160,-781.738,-907.715,273.438,-797.363,0
1007.661,-1000.000,-97.656,-689.941,-1000.000,-381.836,0
1007.665,-415.527,-236.328,-755.371,-591.309,-494.629,0
1007.669,-849.121,-936.035,-967.285,-964.844,-885.742,0
1007.673,279.785,-943.359,-971.680,515.137,-1000.000,0
1007.677,-1000.000,-274.414,-696.289,-978.516,-454.590,0
1007.681,-896.484,-11.719,-575.684,-1000.000,-165.527,0
1007.685,681.152,-683.105,-890.137,328.613,-799.316,0
1007.689,742.676,-1000.000,-999.023,-989.746,-1000.000,0
1007.693,-835.449,-539.062,-824.219,-471.680,-783.203,0
1007.697,-1000.000,-7.324,-640.625,-1000.000,-484.375,0
1007.700,-16.113,-482.422,-805.664,-146.973,-714.355,0
1007.704,-827.148,-1000.000,-1000.000,-815.918,-1000.000,0
1007.708,-110.352,-689.453,-850.586,116.699,-716.797,0
1007.712,-1000.000,-19.043,-632.324,-1000.000,-408.203,0
1007.716,-190.918,-342.773,-731.445,-297.363,-330.566,0
1007.720,-802.246,-1000.000,-968.750,-818.359,-726.074,0
1007.724,276.367,-827.637,-943.848,260.254,-943.359,0
1007.728,-1000.000,-162.598,-740.234,-1000.000,-643.555,0
1007.732,-529.785,-168.945,-747.070,-911.621,-545.410,0
1007.736,-898.438,-861.328,-948.242,667.480,-774.414,0
1007.739,381.348,-968.262,-978.027,499.023,-961.914,0
1007.743,-1000.000,-339.844,-810.547,-974.609,-664.062,0
1007.747,-1000.000,-22.461,-734.375,-1000.000,-531.250,0
1007.751,442.383,-613.281,-906.250,49.805,-792.969,0
1007.755,916.992,-1000.000,-999.512,844.238,-1000.000,0
1007.759,-635.254,-534.668,-843.262,-616.211,-608.887,0
1007.763,-1000.000,76.660,-670.898,-1000.000,-242.188,0
1007.767,-136.719,-411.133,-833.984,-173.828,-674.316,0
1007.771,-822.754,-1000.000,-997.070,-929.199,-917.969,0
1007.775,35.156,-699.707,-911.621,-110.352,-512.207,0
1007.779,-1000.000,2.930,-786.133,-1000.000,-444.824,0
1007.782,-200.684,-260.742,-857.422,-645.508,-678.223,0
1007.786,-795.898,-1000.000,-983.398,919.434,-971.191,0
1007.790,274.902,-831.055,-958.984,285.645,-839.355,0
1007.794,-1000.000,-108.398,-816.895,-1000.000,-522.461,0
1007.798,-623.047,-26.855,-821.777,-1000.000,-515.137,0
1007.802,-959.961,-760.254,-965.820,298.828,-791.016,0
1007.806,531.738,-992.676,-991.699,412.109,-989.746,0
1007.810,-964.844,-296.875,-793.945,-989.258,-275.879,0
1007.814,-1000.000,139.160,-700.684,-1000.000,19.043,0
1007.818,240.723,-491.699,-911.621,-51.758,-647.949,0
1007.822,-940.918,-1000.000,-999.023,712.891,-1000.000,0
1007.825,-420.898,-546.875,-894.531,-705.566,-682.617,0
1007.829,-1000.000,126.465,-768.555,-1000.000,-297.363,0
1007.833,-174.316,-346.680,-884.277,-363.770,-662.598,0
1007.837,-816.895,-1000.000,-987.793,-991.211,-1000.000,0
1007.841,150.879,-721.680,-945.312,-84.961,-841.797,0
1007.845,-1000.000,41.016,-763.184,-1000.000,-315.918,0
1007.849,-344.727,-138.672,-785.645,-872.070,-159.668,0
1007.853,-834.961,-938.965,-979.492,613.281,-755.371,0
1007.857,276.855,-879.395,-968.262,312.988,-887.695,0
1007.861,-1000.000,-185.547,-843.262,-1000.000,-555.176,0
1007.864,-854.492,-0.488,-750.488,-1000.000,-122.070,0
1007.868,764.160,-677.246,-892.090,148.926,-356.934,0
1007.872,609.375,-1000.000,-994.141,480.957,-899.902,0
1007.876,-927.246,-418.457,-842.773,-938.477,-454.590,0
1007.880,-1000.000,35.156,-743.652,-1000.000,-309.570,0
1007.884,53.223,-501.465,-877.441,-98.633,-590.332,0
1007.888,-961.914,-1000.000,-996.582,881.348,-976.562,0
1007.892,-394.043,-634.766,-892.578,-496.582,-679.199,0
1007.896,-1000.000,28.809,-671.875,-1000.000,-78.125,0
1007.900,-172.363,-348.145,-778.809,-387.207,-300.781,0
1007.904,-823.730,-1000.000,-1000.000,-921.387,-709.961,0
1007.907,155.273,-741.211,-888.184,160.645,-525.391,0
1007.911,-1000.000,29.297,-594.727,-1000.000,-286.133,0
1007.915,-524.414,-119.629,-679.199,-900.391,-355.469,0
1007.919,-919.434,-896.973,-966.309,637.207,-807.617,0
1007.923,287.598,-941.895,-969.727,378.418,-875.977,0
1007.927,-1000.000,-300.293,-774.902,-1000.000,-458.008,0
1007.931,-1000.000,-5.859,-644.531,-1000.000,-253.906,0
1007.935,437.988,-628.906,-856.445,99.609,-623.047,0
1007.939,674.805,-1000.000,-973.145,763.184,-862.793,0
1007.943,-890.625,-440.430,-707.520,-731.445,-296.875,0
1007.947,-1000.000,82.520,-567.871,-1000.000,-57.617,0
1007.950,-121.582,-464.844,-804.688,-165.527,-523.926,0
1007.954,-872.559,-1000.000,-1000.000,-888.672,-1000.000,0
1007.958,-159.180,-648.926,-811.523,-66.406,-507.324,0
1007.962,-1000.000,125.000,-474.609,-1000.000,139.648,0
1007.966,-183.594,-229.004,-691.406,-508.301,-466.309,0
1007.970,-807.617,-1000.000,-998.047,-957.031,-987.793,0
1007.974,275.391,-815.430,-927.734,274.902,-850.586,0
1007.978,-1000.000,-110.840,-701.660,-1000.000,-394.531,0
1007.982,-633.789,-108.887,-736.328,-984.375,-409.180,0
1007.986,-970.703,-830.078,-960.938,530.273,-864.258,0
1007.989,395.996,-967.285,-968.262,487.793,-896.973,0
1007.993,-1000.000,-288.574,-752.930,-973.633,-462.891,0
1007.997,-1000.000,140.137,-541.016,-1000.000,23.926,0
1008.001,321.777,-492.188,-774.902,-20.020,-395.508,0
1008.005,891.113,-1000.000,-1000.000,830.078,-1000.000,0
1008.009,-669.434,-539.551,-878.906,-606.445,-760.254,0
1008.013,-1000.000,66.895,-734.375,-1000.000,-420.898,0
1008.017,-166.016,-411.621,-841.797,-207.031,-601.562,0
1008.021,-831.543,-1000.000,-997.070,-900.879,-1000.000,0
1008.025,54.199,-679.688,-909.668,-41.992,-840.332,0
1008.029,-1000.000,105.469,-700.684,-1000.000,-545.410,0
1008.032,-259.766,-147.949,-782.227,-624.023,-517.578,0
1008.036,-814.941,-968.262,-982.422,947.754,-836.426,0
1008.040,277.832,-853.516,-959.473,294.434,-879.883,0
1008.044,-1000.000,-143.066,-820.312,-1000.000,-579.102,0
1008.048,-715.332,-12.207,-810.547,-1000.000,-620.605,0
1008.052,938.965,-723.633,-956.055,288.574,-827.148,0
1008.056,554.199,-999.023,-987.793,489.746,-917.480,0
1008.060,-962.402,-312.988,-848.633,-958.008,-719.238,0
1008.064,-1000.000,116.699,-769.043,-1000.000,-600.098,0
1008.068,200.195,-501.953,-917.480,-91.797,-827.637,0
1008.072,-916.504,-1000.000,-993.164,918.457,-1000.000,0
1008.075,-376.953,-597.656,-909.180,-461.426,-832.520,0
1008.079,-1000.000,106.445,-729.980,-1000.000,-534.668,0
1008.083,-176.270,-304.688,-802.246,-287.109,-579.590,0
1008.087,-815.430,-1000.000,-1000.000,-912.598,-1000.000,0
1008.091,169.922,-729.492,-868.652,92.773,-569.824,0
1008.095,-1000.000,-13.672,-694.336,-1000.000,-201.172,0
1008.099,-390.137,-225.098,-834.473,-764.160,-702.148,0
1008.103,-851.074,-952.637,-987.793,820.801,-990.234,0
1008.107,278.809,-889.648,-937.988,347.168,-844.238,0
1008.111,-1000.000,-170.410,-674.805,-1000.000,-350.586,0
1008.114,-909.180,22.461,-632.812,-1000.000,-379.395,0
1008.118,678.711,-679.199,-902.832,226.074,-814.453,0
1008.122,663.574,-1000.000,-1000.000,773.438,-1000.000,0
1008.126,-895.020,-484.863,-807.617,-756.348,-606.445,0
1008.130,-1000.000,37.598,-583.496,-1000.000,-148.926,0
1008.134,-15.625,-474.609,-778.320,-139.648,-554.199,0
1008.138,-906.250,-1000.000,-1000.000,-871.094,-1000.000,0
1008.142,-274.414,-671.387,-870.117,-67.383,-853.027,0
1008.146,-1000.000,20.508,-562.012,-1000.000,-207.031,0
1008.150,-182.129,-332.520,-665.527,-332.031,-165.039,0
1008.154,-811.523,-1000.000,-997.070,-855.469,-954.590,0
1008.157,260.254,-809.570,-922.363,270.508,-893.555,0
1008.161,-1000.000,-120.605,-666.016,-1000.000,-515.137,0
1008.165,-558.594,-151.367,-662.598,-837.402,-446.289,0
1008.169,-923.340,-875.977,-937.012,767.578,-827.637,0
1008.173,307.617,-955.566,-969.238,455.078,-943.848,0
1008.177,-1000.000,-301.270,-718.750,-998.535,-471.191,0
1008.181,-1000.000,0.000,-606.934,-1000.000,-251.953,0
1008.185,440.918,-616.211,-843.262,132.812,-472.168,0
1008.189,812.988,-1000.000,-1000.000,845.703,-892.090,0
1008.193,-764.160,-516.602,-836.426,-650.391,-783.691,0
1008.197,-1000.000,82.520,-654.297,-1000.000,-522.949,0
1008.200,-126.465,-417.480,-815.430,-163.086,-761.719,0
1008.204,-837.402,-1000.000,-1000.000,-887.695,-1000.000,0
1008.208,-40.527,-695.312,-905.762,-61.035,-841.309,0
1008.212,-1000.000,17.090,-714.355,-1000.000,-554.688,0
1008.216,-193.359,-267.578,-802.734,-554.688,-671.875,0
1008.220,-800.781,-1000.000,-991.211,-990.723,-989.258,0
1008.224,275.879,-817.871,-937.988,272.949,-829.590,0
1008.228,-1000.000,-74.219,-715.820,-1000.000,-345.703,0
1008.232,-611.816,-29.297,-735.840,-1000.000,-393.066,0
1008.236,-947.754,-792.480,-974.609,373.047,-944.824,0
1008.239,470.215,-972.656,-950.684,490.234,-772.949,0
1008.243,-995.117,-287.598,-749.023,-964.355,-231.934,0
1008.247,-1000.000,94.238,-730.957,-1000.000,-463.379,0
1008.251,272.949,-520.996,-911.621,-42.480,-827.637,0
1008.255,988.770,-1000.000,-996.094,773.926,-996.582,0
1008.259,-533.691,-533.691,-872.070,-646.484,-708.496,0
1008.263,-1000.000,125.488,-731.934,-1000.000,-485.352,0
1008.267,-168.945,-354.492,-854.980,-336.426,-697.754,0
1008.271,-825.195,-1000.000,-990.723,-944.336,-972.656,0
1008.275,98.145,-719.238,-939.453,5.371,-864.258,0
1008.279,-1000.000,63.477,-677.246,-1000.000,-126.465,0
1008.282,-300.293,-146.484,-735.840,-774.902,-238.770,0
1008.286,-823.242,-962.402,-990.234,772.949,-979.980,0
1008.290,275.391,-866.699,-970.215,316.895,-919.922,0
1008.294,-1000.000,-142.578,-801.270,-1000.000,-531.250,0
1008.298,-807.617,9.766,-761.230,-1000.000,-424.316,0
1008.302,827.148,-712.402,-952.148,201.172,-854.492,0
1008.306,584.961,-1000.000,-988.281,523.926,-965.820,0
1008.310,-944.336,-379.395,-853.516,-927.734,-694.336,0
1008.314,-1000.000,115.723,-686.523,-1000.000,-354.492,0
1008.318,107.910,-454.590,-823.730,-100.098,-522.461,0
1008.322,-924.805,-1000.000,-1000.000,936.035,-1000.000,0
1008.325,-361.816,-613.770,-892.090,-430.664,-769.043,0
1008.329,-1000.000,73.242,-698.730,-1000.000,-497.559,0
1008.333,-175.293,-329.590,-796.875,-306.152,-412.598,0
1008.337,-818.359,-1000.000,-991.699,-879.883,-683.105,0
1008.341,173.340,-768.066,-924.805,165.039,-878.418,0
1008.345,-1000.000,-49.316,-700.195,-1000.000,-486.328,0
1008.349,-474.121,-173.828,-729.980,-831.055,-421.387,0
1008.353,-890.137,-918.945,-966.309,742.188,-829.102,0
1008.357,284.668,-921.387,-963.867,367.188,-926.270,0
1008.361,-1000.000,-243.164,-734.375,-1000.000,-518.066,0
1008.364,-993.652,5.371,-611.328,-1000.000,-230.469,0
1008.368,543.457,-653.320,-869.141,168.457,-668.945,0
1008.372,676.758,-1000.000,-966.797,829.102,-763.672,0
1008.376,-889.160,-493.652,-758.301,-686.523,-334.961,0
1008.380,-1000.000,32.227,-635.742,-1000.000,-407.715,0
1008.384,-87.891,-467.773,-810.059,-150.391,-704.590,0
1008.388,-886.719,-1000.000,-999.023,-875.488,-975.586,0
1008.392,-201.172,-672.852,-844.238,-60.547,-673.828,0
1008.396,-1000.000,21.484,-617.676,-1000.000,-395.020,0
1008.400,-183.594,-314.941,-752.441,-437.500,-574.219,0
1008.404,-809.082,-1000.000,-1000.000,-911.621,-999.023,0
1008.407,276.855,-795.410,-892.578,249.512,-714.355,0
1008.411,-1000.000,-68.359,-611.816,-1000.000,-150.879,0
1008.415,-600.098,-86.426,-657.715,-962.891,-224.609,0
1008.419,-942.383,-835.938,-933.105,565.918,-694.336,0
1008.423,359.375,-964.844,-994.141,411.621,-1000.000,0
1008.427,-1000.000,-269.531,-724.609,-1000.000,-332.031,0
1008.431,-1000.000,87.891,-579.590,-1000.000,45.898,0
1008.435,357.910,-568.848,-874.023,1.465,-685.547,0
1008.439,853.027,-1000.000,-1000.000,727.539,-1000.000,0
1008.443,-718.750,-514.160,-857.910,-720.703,-701.660,0
1008.447,-1000.000,120.117,-669.922,-1000.000,-342.773,0
1008.450,-162.109,-378.906,-814.453,-225.586,-620.605,0
1008.454,-838.867,-1000.000,-1000.000,-945.801,-1000.000,0
1008.458,15.625,-678.711,-891.602,-120.605,-658.691,0
1008.462,-1000.000,74.707,-684.082,-1000.000,-311.523,0
1008.466,-243.652,-178.223,-747.559,-630.859,-162.109,0
1008.470,-812.988,-975.098,-965.332,922.852,-590.820,0
1008.474,276.855,-835.449,-964.355,253.418,-950.195,0
1008.478,-1000.000,-87.402,-768.066,-1000.000,-497.559,0
1008.482,-708.008,5.371,-753.906,-1000.000,-377.441,0
1008.486,950.684,-742.188,-945.801,243.652,-722.168,0
1008.489,495.605,-991.211,-988.281,406.250,-963.379,0
1008.493,-987.305,-319.336,-844.238,-982.910,-637.695,0
1008.497,-1000.000,115.234,-734.375,-1000.000,-439.941,0
1008.501,207.031,-492.188,-889.160,-66.406,-722.168,0
1008.505,-994.629,-1000.000,-1000.000,788.574,-992.188,0
1008.509,-496.582,-555.176,-868.652,-628.418,-616.699,0
1008.513,-1000.000,114.746,-714.844,-1000.000,-337.891,0
1008.517,-169.922,-343.750,-840.820,-350.586,-696.777,0
1008.521,-826.172,-1000.000,-999.023,-927.246,-925.293,0
1008.525,111.328,-719.727,-892.090,74.219,-456.543,0
1008.529,-1000.000,29.297,-691.895,-1000.000,-214.844,0
1008.532,-380.371,-169.922,-796.875,-844.727,-554.199,0
1008.536,-854.492,-944.824,-983.887,689.453,-939.941,0
1008.540,282.227,-881.348,-959.961,330.566,-847.168,0
1008.544,-1000.000,-170.410,-778.809,-1000.000,-498.047,0
1008.548,-884.766,15.625,-723.145,-1000.000,-424.805,0
1008.552,722.168,-681.152,-917.969,183.594,-721.191,0
1008.556,607.422,-1000.000,-1000.000,565.918,-975.586,0
1008.560,-930.664,-383.789,-736.816,-906.250,-199.219,0
1008.564,-1000.000,115.234,-581.055,-1000.000,27.344,0
1008.568,29.785,-472.656,-850.098,-114.746,-715.820,0
1008.572,-936.523,-1000.000,-1000.000,983.398,-1000.000,0
1008.575,-349.609,-628.906,-862.793,-343.750,-683.594,0
1008.579,-1000.000,63.965,-631.348,-1000.000,-249.512,0
1008.583,-177.246,-330.566,-782.227,-430.664,-577.148,0
1008.587,-816.406,-1000.000,-996.582,-931.641,-979.004,0
1008.591,214.844,-782.715,-923.828,205.566,-863.770,0
1008.595,-1000.000,-52.246,-649.902,-1000.000,-345.703,0
1008.599,-520.508,-122.070,-648.926,-890.137,-167.969,0
1008.603,-907.715,-886.719,-951.660,661.133,-738.281,0
1008.607,284.668,-935.059,-964.355,378.906,-910.645,0
1008.611,-1000.000,-268.066,-752.930,-1000.000,-593.262,0
1008.614,-1000.000,28.809,-586.914,-1000.000,-151.855,0
1008.618,446.777,-599.121,-784.668,137.207,-335.449,0
1008.622,716.797,-1000.000,-1000.000,727.539,-999.023,0
1008.626,-863.281,-501.465,-824.707,-785.645,-683.105,0
1008.630,-1000.000,66.406,-628.906,-1000.000,-384.766,0
1008.634,-132.812,-437.500,-796.387,-146.973,-616.211,0
1008.638,-862.305,-1000.000,-1000.000,-904.297,-994.629,0
1008.642,-118.164,-682.617,-885.742,-115.723,-799.316,0
1008.646,-1000.000,41.016,-614.746,-1000.000,-276.367,0
1008.650,-186.035,-267.090,-718.750,-497.070,-313.477,0
1008.654,-805.664,-1000.000,-990.234,-953.125,-730.957,0
1008.657,276.367,-818.359,-940.430,252.441,-791.992,0
1008.661,-1000.000,-102.539,-725.586,-1000.000,-540.039,0
1008.665,-611.328,-76.660,-738.770,-1000.000,-532.715,0
1008.669,-947.266,-813.965,-956.055,422.852,-881.836,0
1008.673,403.809,-970.703,-981.445,417.969,-952.148,0
1008.677,-1000.000,-299.316,-803.223,-998.535,-633.301,0
1008.681,-1000.000,80.566,-699.707,-1000.000,-480.469,0
1008.685,312.012,-536.133,-884.766,-41.016,-786.133,0
1008.689,943.359,-1000.000,-1000.000,793.457,-961.914,0
1008.693,-601.074,-519.531,-842.773,-638.184,-533.691,0
1008.697,-1000.000,138.672,-656.738,-1000.000,-253.418,0
1008.700,-166.504,-356.934,-810.547,-263.672,-612.793,0
1008.704,-830.566,-1000.000,-1000.000,-930.664,-1000.000,0
1008.708,59.082,-682.617,-865.234,-50.781,-578.613,0
1008.712,-1000.000,82.520,-635.254,-1000.000,-33.203,0
1008.716,-277.344,-194.824,-803.711,-736.328,-573.730,0
1008.720,-820.312,-979.980,-991.699,811.035,-994.141,0
1008.724,278.320,-848.145,-955.078,295.410,-896.973,0
1008.728,-1000.000,-115.723,-766.113,-1000.000,-517.090,0
1008.732,-749.023,2.441,-751.465,-1000.000,-498.047,0
1008.736,903.320,-730.469,-952.637,235.840,-891.602,0
1008.739,549.805,-1000.000,-982.910,514.160,-913.574,0
1008.743,-958.984,-358.887,-830.078,-938.965,-585.938,0
1008.747,-1000.000,128.906,-615.723,-1000.000,-79.102,0
1008.751,143.066,-456.543,-785.156,-88.867,-378.418,0
1008.755,-944.824,-1000.000,-1000.000,902.832,-1000.000,0
1008.759,-403.320,-600.586,-891.602,-478.516,-815.430,0
1008.763,-1000.000,85.938,-678.223,-1000.000,-374.023,0
1008.767,-174.316,-333.984,-776.855,-327.637,-497.070,0
1008.771,-818.848,-1000.000,-998.535,-898.438,-1000.000,0
1008.775,160.645,-752.930,-920.898,141.113,-847.168,0
1008.779,-1000.000,-26.367,-709.961,-1000.000,-531.738,0
1008.782,-416.992,-167.969,-745.605,-763.184,-439.941,0
1008.786,-863.770,-924.316,-964.844,821.777,-759.766,0
1008.790,280.762,-905.762,-956.543,338.867,-882.812,0
1008.794,-1000.000,-216.797,-752.441,-1000.000,-518.555,0
1008.798,-938.477,-3.418,-698.242,-1000.000,-511.719,0
1008.802,633.789,-672.363,-907.715,156.250,-744.141,0
1008.806,659.180,-1000.000,-998.047,658.691,-900.391,0
1008.810,-903.320,-461.426,-828.125,-835.449,-708.496,0
1008.814,-1000.000,59.082,-664.551,-1000.000,-487.305,0
1008.818,-23.926,-467.285,-830.078,-134.277,-737.305,0
1008.822,-871.094,-1000.000,-1000.000,-934.570,-1000.000,0
1008.825,-211.426,-658.203,-881.836,-198.242,-807.129,0
1008.829,-1000.000,38.086,-652.832,-1000.000,-468.262,0
1008.833,-184.082,-311.523,-748.535,-392.090,-456.055,0
1008.837,-808.594,-1000.000,-1000.000,-893.066,-958.008,0
1008.841,267.090,-775.391,-852.539,262.695,-561.523,0
1008.845,-1000.000,-61.523,-604.980,-1000.000,-94.727,0
1008.849,-555.664,-145.020,-738.770,-932.617,-565.430,0
1008.853,-919.434,-875.977,-970.215,619.141,-930.176,0
1008.857,310.547,-943.359,-951.172,411.621,-857.422,0
1008.861,-1000.000,-270.996,-724.121,-1000.000,-432.617,0
1008.864,-1000.000,25.879,-664.062,-1000.000,-466.797,0
1008.868,397.461,-602.051,-880.859,44.434,-780.273,0
1008.872,815.430,-1000.000,-1000.000,774.414,-1000.000,0
1008.876,-759.766,-506.836,-810.059,-699.219,-607.422,0
1008.880,-1000.000,103.516,-580.078,-1000.000,-139.160,0
1008.884,-146.484,-408.203,-784.180,-161.133,-526.855,0
1008.888,-845.703,-1000.000,-999.512,-902.832,-982.910,0
1008.892,-48.340,-693.359,-914.062,-99.121,-882.812,0
1008.896,-1000.000,59.570,-629.883,-1000.000,-242.676,0
1008.900,-192.383,-212.402,-679.688,-595.703,-117.676,0
1008.904,-801.758,-1000.000,-987.305,963.867,-894.043,0
1008.907,273.438,-827.637,-950.684,269.531,-922.363,0
1008.911,-1000.000,-102.051,-750.977,-1000.000,-552.734,0
1008.915,-657.715,-35.645,-739.746,-1000.000,-462.891,0
1008.919,-994.141,-776.367,-945.801,340.332,-812.500,0
1008.923,469.238,-983.887,-987.305,431.152,-967.773,0
1008.927,-997.559,-296.387,-781.250,-987.793,-462.891,0
1008.931,-1000.000,113.281,-669.434,-1000.000,-295.410,0
1008.935,251.953,-509.277,-871.094,-24.414,-525.879,0
1008.939,978.516,-1000.000,-999.023,736.816,-862.793,0
1008.943,-544.434,-543.457,-869.629,-708.984,-713.379,0
1008.947,-1000.000,112.793,-717.773,-1000.000,-452.637,0
1008.950,-168.945,-358.887,-842.773,-292.969,-723.145,0
1008.954,-826.660,-1000.000,-995.117,-936.523,-992.676,0
1008.958,96.191,-716.309,-921.875,-34.180,-845.703,0
1008.962,-1000.000,30.273,-737.305,-1000.000,-520.020,0
1008.966,-319.336,-181.641,-800.293,-777.832,-612.305,0
1008.970,-830.566,-961.426,-986.328,764.648,-967.773,0
1008.974,276.367,-863.770,-949.219,316.895,-838.379,0
1008.978,-1000.000,-136.230,-731.934,-1000.000,-351.074,0
1008.982,-836.914,7.324,-716.797,-1000.000,-389.648,0
1008.986,788.086,-713.379,-952.148,198.730,-901.855,0
1008.989,590.332,-1000.000,-957.520,587.891,-781.738,0
1008.993,-941.895,-370.605,-740.723,-895.020,-208.496,0
1008.997,-1000.000,88.379,-671.387,-1000.000,-357.422,0
1009.001,90.332,-482.422,-860.352,-101.074,-731.934,0
1009.005,-934.570,-1000.000,-1000.000,957.031,-999.023,0
1009.009,-371.094,-612.305,-862.305,-394.531,-694.824,0
1009.013,-1000.000,69.336,-664.551,-1000.000,-381.836,0
1009.017,-175.293,-341.309,-799.316,-367.676,-646.484,0
1009.021,-818.359,-1000.000,-998.047,-903.320,-1000.000,0
1009.025,179.688,-766.113,-909.668,192.871,-787.109,0
1009.029,-1000.000,-9.277,-580.566,-1000.000,12.207,0
1009.032,-482.910,-131.348,-648.438,-869.629,-111.816,0
1009.036,-894.531,-916.016,-979.492,688.477,-913.086,0
1009.040,287.598,-920.410,-967.285,354.004,-942.871,0
1009.044,-1000.000,-232.422,-735.840,-1000.000,-493.652,0
1009.048,-981.445,17.090,-641.113,-1000.000,-313.477,0
1009.052,561.523,-648.926,-890.625,112.793,-766.602,0
1009.056,695.801,-1000.000,-1000.000,680.664,-1000.000,0
1009.060,-880.371,-469.238,-805.176,-809.570,-596.680,0
1009.064,-1000.000,98.633,-573.242,-1000.000,-119.141,0
1009.068,-68.848,-430.176,-766.113,-133.301,-436.035,0
1009.072,-857.422,-1000.000,-1000.000,-936.035,-1000.000,0
1009.075,-161.621,-668.945,-886.719,-194.336,-781.250,0
1009.079,-1000.000,34.180,-668.945,-1000.000,-485.352,0
1009.083,-185.059,-292.480,-757.812,-426.758,-374.512,0
1009.087,-807.129,-1000.000,-980.957,-913.086,-657.715,0
1009.091,276.855,-805.664,-937.500,227.051,-897.461,0
1009.095,-1000.000,-86.914,-715.820,-1000.000,-520.508,0
1009.099,-592.285,-97.656,-735.352,-1000.000,-515.137,0
1009.103,-937.012,-838.379,-957.031,481.934,-858.398,0
1009.107,366.699,-960.938,-980.469,405.762,-952.148,0
1009.111,-1000.000,-280.762,-768.555,-1000.000,-538.574,0
1009.114,-1000.000,80.078,-621.582,-1000.000,-187.012,0
1009.118,347.656,-554.688,-854.004,-11.230,-631.836,0
1009.122,860.352,-1000.000,-989.746,802.734,-823.730,0
1009.126,-710.449,-520.508,-831.543,-642.578,-447.754,0
1009.130,-1000.000,93.750,-700.684,-1000.000,-479.980,0
1009.134,-162.109,-394.531,-834.473,-227.539,-737.305,0
1009.138,-841.309,-1000.000,-997.070,-914.062,-987.305,0
1009.142,6.836,-698.242,-912.109,-66.895,-771.973,0
1009.146,-1000.000,41.016,-718.262,-1000.000,-493.164,0
1009.150,-247.070,-215.820,-794.922,-694.336,-615.234,0
1009.154,-815.430,-992.676,-993.164,857.910,-990.723,0
1009.157,276.367,-828.125,-926.758,280.762,-774.902,0
1009.161,-1000.000,-83.008,-693.359,-1000.000,-246.582,0
1009.165,-728.516,1.465,-704.590,-1000.000,-298.828,0
1009.169,928.223,-745.605,-934.082,258.789,-755.371,0
1009.173,501.953,-1000.000,-1000.000,439.453,-1000.000,0
1009.177,-987.305,-315.430,-766.602,-974.609,-392.090,0
1009.181,-1000.000,136.719,-588.867,-1000.000,41.016,0
1009.185,205.078,-495.117,-859.863,-69.336,-668.945,0
1009.189,-987.793,-1000.000,-1000.000,809.570,-1000.000,0
1009.193,-485.840,-574.219,-879.395,-602.051,-754.883,0
1009.197,-1000.000,103.027,-684.082,-1000.000,-368.652,0
1009.200,-171.875,-343.750,-804.688,-332.520,-595.703,0
1009.204,-823.730,-1000.000,-1000.000,-916.504,-1000.000,0
1009.208,129.883,-728.516,-898.438,77.148,-696.777,0
1009.212,-1000.000,12.207,-677.734,-1000.000,-336.426,0
1009.216,-388.184,-147.461,-697.266,-811.523,-142.578,0
1009.220,-855.957,-925.293,-937.988,729.492,-545.898,0
1009.224,282.715,-890.625,-969.238,325.195,-951.172,0
1009.228,-1000.000,-186.035,-763.184,-1000.000,-582.520,0
1009.232,-883.789,4.395,-693.359,-1000.000,-412.598,0
1009.236,723.145,-679.688,-892.090,198.730,-665.527,0
1009.239,613.770,-1000.000,-998.047,568.848,-983.887,0
1009.243,-928.223,-429.688,-826.660,-903.809,-673.828,0
1009.247,-1000.000,73.730,-663.086,-1000.000,-437.500,0
1009.251,24.902,-471.191,-833.008,-96.680,-683.594,0
1009.255,-916.504,-1000.000,-1000.000,932.129,-990.723,0
1009.259,-313.965,-629.883,-859.375,-433.105,-690.430,0
1009.263,-1000.000,52.246,-649.414,-1000.000,-364.258,0
1009.267,-179.688,-334.473,-788.086,-400.879,-667.969,0
1009.271,-813.477,-1000.000,-997.070,-912.598,-920.898,0
1009.275,234.863,-780.762,-902.344,238.281,-587.402,0
1009.279,-1000.000,-66.895,-684.570,-1000.000,-396.484,0
1009.282,-509.766,-148.926,-740.723,-917.969,-554.199,0
1009.286,-898.926,-890.625,-967.285,629.883,-891.602,0
1009.290,285.156,-935.547,-963.379,382.324,-890.137,0
1009.294,-1000.000,-258.789,-755.371,-1000.000,-539.062,0
1009.298,-1000.000,34.668,-640.625,-1000.000,-334.961,0
1009.302,493.652,-609.863,-859.375,83.496,-646.484,0
1009.306,733.887,-1000.000,-1000.000,729.004,-1000.000,0
1009.310,-849.121,-461.914,-741.211,-753.906,-279.785,0
1009.314,-1000.000,113.281,-561.035,-1000.000,-12.207,0
1009.318,-114.746,-434.082,-825.684,-156.250,-724.609,0
1009.322,-847.168,-1000.000,-1000.000,-935.059,-1000.000,0
1009.325,-86.426,-671.387,-879.883,-168.457,-743.164,0
1009.329,-1000.000,51.270,-653.809,-1000.000,-343.262,0
1009.333,-189.453,-270.996,-784.668,-553.711,-625.488,0
1009.337,-803.711,-1000.000,-990.234,991.699,-977.051,0
1009.341,276.367,-814.453,-944.824,255.371,-896.484,0
1009.345,-1000.000,-76.172,-700.195,-1000.000,-432.129,0
1009.349,-609.863,-38.086,-670.410,-1000.000,-233.398,0
1009.353,-945.801,-801.758,-941.895,431.152,-752.441,0
1009.357,408.203,-971.680,-978.516,438.477,-903.320,0
1009.361,-1000.000,-304.199,-813.477,-994.141,-641.602,0
1009.364,-1000.000,99.121,-638.672,-1000.000,-249.512,0
1009.368,293.457,-506.348,-791.504,-5.859,-372.070,0
1009.372,940.430,-1000.000,-1000.000,753.906,-1000.000,0
1009.376,-602.051,-541.016,-875.488,-692.383,-773.438,0
1009.380,-1000.000,99.121,-700.195,-1000.000,-481.934,0
1009.384,-165.527,-376.465,-824.219,-244.629,-653.809,0
1009.388,-832.520,-1000.000,-997.559,-924.805,-989.258,0
1009.392,54.199,-708.984,-916.016,-61.035,-838.867,0
1009.396,-1000.000,45.898,-675.293,-1000.000,-335.938,0
1009.400,-286.621,-186.035,-744.629,-704.590,-334.961,0
1009.404,-824.219,-973.633,-982.910,852.051,-745.117,0
1009.407,279.297,-856.934,-958.008,297.852,-844.727,0
1009.411,-1000.000,-142.578,-775.391,-1000.000,-627.441,0
1009.415,-761.230,-11.719,-731.934,-1000.000,-458.984,0
1009.419,888.672,-725.586,-925.293,272.461,-720.703,0
1009.423,546.875,-1000.000,-993.652,487.305,-979.492,0
1009.427,-961.426,-368.652,-829.590,-956.543,-688.477,0
1009.431,-1000.000,86.914,-695.801,-1000.000,-494.629,0
1009.435,140.137,-490.234,-862.305,-110.352,-772.949,0
1009.439,-954.590,-1000.000,-1000.000,948.730,-979.980,0
1009.443,-416.992,-592.773,-849.609,-412.109,-581.543,0
1009.447,-1000.000,90.820,-633.789,-1000.000,-252.930,0
1009.450,-174.316,-341.309,-784.180,-336.914,-578.613,0
1009.454,-819.336,-1000.000,-1000.000,-903.320,-1000.000,0
1009.458,160.156,-732.422,-860.352,128.906,-608.398,0
1009.462,-1000.000,14.160,-584.961,-1000.000,4.883,0
1009.466,-421.875,-171.875,-740.723,-823.242,-471.680,0
1009.470,-866.211,-937.012,-989.258,737.305,-978.027,0
1009.474,281.250,-893.066,-939.941,327.637,-814.941,0
1009.478,-1000.000,-195.801,-703.125,-1000.000,-345.215,0
1009.482,-941.895,1.953,-670.410,-1000.000,-417.480,0
1009.486,628.418,-675.293,-909.180,150.391,-817.871,0
1009.489,660.645,-1000.000,-994.141,649.414,-967.773,0
1009.493,-902.344,-442.383,-791.992,-843.750,-549.316,0
1009.497,-1000.000,113.281,-532.715,-1000.000,60.059,0
1009.501,-24.902,-429.199,-734.863,-125.000,-329.590,0
1009.505,-873.047,-1000.000,-1000.000,-967.773,-1000.000,0
1009.509,-213.379,-655.273,-886.230,-257.324,-812.500,0
1009.513,-1000.000,52.734,-645.508,-1000.000,-381.348,0
1009.517,-184.570,-299.316,-747.559,-448.730,-474.121,0
1009.521,-808.105,-1000.000,-995.605,-936.523,-980.957,0
1009.525,271.484,-789.551,-928.223,208.984,-858.887,0
1009.529,-1000.000,-71.289,-709.473,-1000.000,-527.832,0
1009.532,-552.734,-102.539,-707.520,-1000.000,-362.793,0
1009.536,-916.504,-848.633,-939.941,439.941,-682.617,0
1009.540,312.988,-946.289,-973.633,396.973,-907.715,0
1009.544,-1000.000,-250.977,-733.398,-1000.000,-376.953,0
1009.548,-1000.000,63.477,-646.973,-1000.000,-317.383,0
1009.552,409.180,-586.914,-885.742,22.461,-675.781,0
1009.556,821.289,-1000.000,-1000.000,661.621,-884.277,0
1009.560,-752.930,-501.465,-857.910,-786.621,-738.281,0
1009.564,-1000.000,98.633,-683.594,-1000.000,-481.934,0
1009.568,-144.043,-406.250,-823.242,-165.039,-716.797,0
1009.572,-845.703,-1000.000,-1000.000,933.105,-1000.000,0
1009.575,-49.805,-682.129,-906.250,-356.934,-821.777,0
1009.579,-1000.000,49.316,-692.871,-1000.000,-484.863,0
1009.583,-196.777,-231.934,-758.301,-612.305,-415.039,0
1009.587,-803.223,-1000.000,-997.559,930.176,-906.738,0
1009.591,273.438,-807.617,-887.695,284.180,-605.957,0
1009.595,-1000.000,-68.848,-643.555,-1000.000,-39.551,0
1009.599,-671.875,-47.363,-742.676,-1000.000,-485.840,0
1009.603,990.234,-790.039,-965.332,320.801,-922.852,0
1009.607,461.426,-975.586,-965.820,418.457,-878.906,0
1009.611,-1000.000,-300.781,-772.949,-989.746,-476.074,0
1009.614,-1000.000,89.844,-690.918,-1000.000,-475.098,0
1009.618,242.188,-520.996,-875.977,-52.246,-773.926,0
1009.622,968.750,-1000.000,-1000.000,772.949,-1000.000,0
1009.626,-555.664,-544.922,-844.727,-652.832,-651.855,0
1009.630,-1000.000,128.906,-610.352,-1000.000,-161.133,0
1009.634,-166.504,-347.656,-781.250,-270.996,-482.422,0
1009.638,-831.055,-1000.000,-996.094,-921.387,-958.984,0
1009.642,72.266,-726.074,-928.223,-29.297,-906.738,0
1009.646,-1000.000,35.645,-646.973,-1000.000,-262.207,0
1009.650,-334.961,-158.203,-667.969,-791.016,-79.590,0
1009.654,-840.332,-960.449,-978.516,738.770,-849.121,0
1009.657,279.785,-873.047,-963.867,317.871,-937.500,0
1009.661,-1000.000,-167.480,-763.184,-1000.000,-565.430,0
1009.665,-839.844,-11.719,-707.520,-1000.000,-432.129,0
1009.669,784.180,-711.426,-918.945,207.520,-769.531,0
1009.673,584.473,-1000.000,-995.117,525.879,-982.910,0
1009.677,-945.312,-380.859,-775.391,-930.176,-475.098,0
1009.681,-1000.000,95.215,-614.746,-1000.000,-271.484,0
1009.685,90.332,-477.051,-818.848,-93.262,-447.266,0
1009.689,-935.059,-1000.000,-1000.000,943.848,-825.195,0
1009.693,-372.070,-620.605,-876.953,-418.945,-816.406,0
1009.697,-1000.000,62.500,-667.480,-1000.000,-478.027,0
1009.700,-175.781,-339.844,-793.457,-368.652,-633.789,0
1009.704,-817.871,-1000.000,-997.070,-911.621,-939.941,0
1009.708,178.711,-766.113,-921.875,152.344,-877.441,0
1009.712,-1000.000,-31.250,-664.062,-1000.000,-398.926,0
1009.716,-469.238,-146.484,-700.195,-877.930,-367.676,0
1009.720,-887.695,-914.062,-975.098,666.504,-905.762,0
1009.724,286.133,-916.016,-956.543,356.934,-871.094,0
1009.728,-1000.000,-219.727,-714.844,-1000.000,-372.070,0
1009.732,-972.168,19.531,-660.156,-1000.000,-376.465,0
1009.736,576.172,-651.367,-914.551,88.867,-866.211,0
1009.739,700.684,-1000.000,-966.797,715.332,-823.242,0
1009.743,-879.395,-444.336,-736.816,-768.066,-258.789,0
1009.747,-1000.000,87.402,-638.184,-1000.000,-360.840,0
1009.751,-45.898,-447.754,-832.520,-139.160,-756.348,0
1009.755,-846.680,-1000.000,-1000.000,-972.168,-1000.000,0
1009.759,-154.785,-654.785,-872.559,-248.047,-721.680,0
1009.763,-1000.000,54.688,-668.457,-1000.000,-422.363,0
1009.767,-186.035,-290.527,-791.016,-511.719,-645.508,0
1009.771,-806.152,-1000.000,-993.652,-979.980,-979.980,0
1009.775,276.855,-798.340,-927.246,237.793,-826.172,0
1009.779,-1000.000,-40.039,-619.629,-1000.000,-64.453,0
1009.782,-577.148,-62.988,-661.133,-1000.000,-159.180,0
1009.786,-927.246,-844.238,-969.238,441.895,-912.598,0
1009.790,371.582,-956.055,-983.398,354.980,-970.215,0
1009.794,-1000.000,-276.367,-790.527,-1000.000,-575.195,0
1009.798,-1000.000,63.477,-681.641,-1000.000,-378.418,0
1009.802,371.582,-570.312,-895.020,-9.766,-789.551,0
1009.806,864.746,-1000.000,-1000.000,689.453,-999.512,0
1009.810,-704.590,-521.484,-871.094,-756.348,-771.484,0
1009.814,-1000.000,109.375,-664.551,-1000.000,-367.676,0
1009.818,-159.668,-377.930,-784.180,-200.684,-478.027,0
1009.822,-839.355,-1000.000,-1000.000,-941.895,-996.582,0
1009.825,7.812,-696.777,-914.551,-139.648,-834.473,0
1009.829,-1000.000,34.668,-713.867,-1000.000,-547.363,0
1009.833,-236.816,-216.309,-761.230,-602.539,-349.609,0
1009.837,-811.523,-984.375,-971.680,954.102,-628.906,0
1009.841,274.902,-841.797,-956.055,268.066,-932.617,0
1009.845,-1000.000,-123.047,-756.348,-1000.000,-589.844,0
1009.849,-723.145,-44.922,-746.094,-1000.000,-552.734,0
1009.853,934.082,-767.578,-945.801,301.758,-851.562,0
1009.857,497.559,-996.094,-988.281,458.984,-967.285,0
1009.861,-988.281,-351.562,-820.312,-974.121,-668.945,0
1009.864,-1000.000,84.473,-648.438,-1000.000,-290.039,0
1009.868,213.867,-503.418,-835.938,-88.867,-637.207,0
1009.872,985.840,-1000.000,-993.652,930.176,-864.258,0
1009.876,-526.855,-583.984,-848.633,-451.172,-507.324,0
1009.880,-1000.000,66.895,-693.848,-1000.000,-496.582,0
1009.884,-170.898,-373.047,-817.383,-299.805,-731.445,0
1009.888,-825.684,-1000.000,-999.023,-914.062,-995.117,0
1009.892,121.094,-734.863,-899.414,60.547,-723.145,0
1009.896,-1000.000,-9.766,-682.617,-1000.000,-447.754,0
1009.900,-377.441,-196.777,-761.230,-785.156,-613.770,0
1009.904,-852.539,-955.078,-987.793,778.809,-969.727,0
1009.907,282.715,-875.977,-929.688,321.289,-800.293,0
1009.911,-1000.000,-164.062,-671.875,-1000.000,-270.508,0
1009.915,-873.047,2.930,-645.020,-1000.000,-280.762,0
1009.919,739.258,-694.336,-898.438,188.965,-730.469,0
1009.923,611.816,-1000.000,-1000.000,566.895,-1000.000,0
1009.927,-931.641,-407.227,-762.695,-906.250,-433.105,0
1009.931,-1000.000,108.887,-544.434,-1000.000,49.316,0
1009.935,43.457,-470.215,-817.383,-112.305,-644.043,0
1009.939,-905.762,-1000.000,-1000.000,978.027,-1000.000,0
1009.943,-303.223,-633.301,-877.441,-356.445,-783.691,0
1009.947,-1000.000,63.965,-648.438,-1000.000,-387.207,0
1009.950,-181.641,-315.918,-764.160,-404.785,-496.094,0
1009.954,-812.012,-1000.000,-1000.000,-919.922,-981.934,0
1009.958,244.629,-766.602,-900.879,192.383,-753.906,0
1009.962,-1000.000,-34.668,-668.945,-1000.000,-384.277,0
1009.966,-499.512,-98.633,-663.086,-916.992,-173.828,0
1009.970,-893.066,-863.770,-911.133,594.727,-533.203,0
1009.974,287.109,-931.152,-981.445,343.262,-972.168,0
1009.978,-1000.000,-238.281,-783.691,-1000.000,-643.555,0
1009.982,-982.422,43.457,-692.383,-1000.000,-459.961,0
1009.986,543.945,-605.469,-877.930,50.293,-677.246,0
1009.989,757.812,-1000.000,-1000.000,607.422,-996.094,0
1009.993,-824.707,-474.609,-853.516,-841.309,-734.375,0
1009.997,-1000.000,102.539,-691.406,-1000.000,-487.305,0
1010.001,-83.008,-418.945,-836.914,-162.598,-687.988,0
1010.005,-837.402,-1000.000,-1000.000,-987.793,-998.047,0
1010.009,-86.426,-656.250,-882.812,-259.766,-692.383,0
1010.013,-1000.000,80.078,-664.551,-1000.000,-246.582,0
1010.017,-190.918,-256.348,-793.457,-611.816,-604.004,0
1010.021,-803.223,-1000.000,-994.629,928.223,-952.637,0
1010.025,276.367,-806.152,-933.594,259.766,-664.062,0
1010.029,-1000.000,-75.195,-749.512,-1000.000,-477.539,0
1010.032,-603.516,-58.105,-767.090,-1000.000,-604.492,0
1010.036,-941.895,-809.082,-960.449,344.727,-899.414,0
1010.040,397.949,-968.262,-980.469,395.508,-927.734,0
1010.044,-1000.000,-290.527,-812.500,-1000.000,-628.906,0
1010.048,-1000.000,84.473,-698.242,-1000.000,-473.633,0
1010.052,309.082,-534.668,-870.117,-23.926,-691.895,0
1010.056,914.062,-1000.000,-1000.000,712.402,-1000.000,0
1010.060,-638.184,-503.418,-782.227,-726.074,-379.395,0
1010.064,-1000.000,130.371,-591.797,-1000.000,-41.504,0
1010.068,-164.062,-387.207,-827.637,-238.281,-675.781,0
1010.072,-836.914,-1000.000,-1000.000,-931.641,-1000.000,0
1010.075,34.668,-703.125,-893.555,-87.402,-772.461,0
1010.079,-1000.000,33.203,-666.992,-1000.000,-348.633,0
1010.083,-290.039,-222.656,-775.391,-708.008,-593.750,0
1010.087,-827.148,-982.910,-985.840,844.238,-956.055,0
1010.091,278.320,-854.004,-952.148,303.711,-912.598,0
1010.095,-1000.000,-133.301,-706.543,-1000.000,-440.918,0
1010.099,-781.250,-7.324,-636.719,-1000.000,-197.754,0
1010.103,865.234,-737.793,-911.621,298.828,-705.078,0
1010.107,512.207,-1000.000,-989.746,439.941,-958.008,0
1010.111,-979.004,-376.953,-817.383,-980.957,-700.684,0
1010.114,-1000.000,90.332,-604.980,-1000.000,-218.750,0
1010.118,131.348,-469.727,-752.930,-82.520,-319.336,0
1010.122,-980.469,-1000.000,-1000.000,909.180,-1000.000,0
1010.126,-453.613,-597.168,-855.957,-479.980,-720.215,0
1010.130,-1000.000,77.148,-625.000,-1000.000,-298.828,0
1010.134,-172.852,-354.004,-783.203,-317.871,-582.520,0
1010.138,-821.289,-1000.000,-1000.000,-899.414,-983.887,0
1010.142,149.902,-750.488,-913.086,110.352,-846.191,0
1010.146,-1000.000,-8.301,-644.043,-1000.000,-308.105,0
1010.150,-406.738,-165.039,-711.914,-812.012,-390.625,0
1010.154,-860.352,-935.059,-979.004,752.441,-801.270,0
1010.157,281.250,-900.391,-961.914,325.684,-838.867,0
1010.161,-1000.000,-208.496,-759.766,-1000.000,-623.535,0
1010.165,-919.434,9.277,-677.734,-1000.000,-438.965,0
1010.169,663.086,-667.969,-893.066,148.438,-738.770,0
1010.173,657.715,-1000.000,-1000.000,594.727,-996.582,0
1010.177,-904.785,-437.500,-827.637,-880.859,-697.754,0
1010.181,-1000.000,86.426,-661.133,-1000.000,-476.074,0
1010.185,-5.859,-453.125,-827.637,-130.859,-742.676,0
1010.189,-863.770,-1000.000,-1000.000,-962.402,-998.047,0
1010.193,-206.543,-634.766,-859.863,-250.000,-634.277,0
1010.197,-1000.000,80.566,-628.418,-1000.000,-264.648,0
1010.200,-185.059,-298.828,-772.949,-456.543,-567.383,0
1010.204,-806.641,-1000.000,-1000.000,-949.219,-1000.000,0
1010.208,274.414,-765.137,-876.953,197.266,-642.578,0
1010.212,-1000.000,-15.625,-610.840,-1000.000,-45.898,0
1010.216,-519.043,-106.934,-745.117,-969.727,-489.258,0
1010.220,-895.508,-870.605,-978.027,525.391,-945.801,0
1010.224,319.336,-937.988,-970.215,369.629,-928.223,0
1010.228,-1000.000,-242.676,-771.973,-1000.000,-528.809,0
1010.232,-1000.000,62.012,-691.895,-1000.000,-438.965,0
1010.236,458.984,-592.285,-902.344,27.344,-816.895,0
1010.239,823.242,-1000.000,-998.535,683.594,-987.305,0
1010.243,-750.977,-481.934,-829.102,-776.367,-610.840,0
1010.247,-1000.000,146.973,-569.336,-1000.000,27.344,0
1010.251,-126.465,-377.441,-742.188,-182.129,-323.730,0
1010.255,-840.820,-1000.000,-1000.000,-940.430,-1000.000,0
1010.259,-52.734,-680.176,-908.691,-155.762,-850.586,0
1010.263,-1000.000,56.641,-690.918,-1000.000,-446.777,0
1010.267,-191.895,-238.770,-763.184,-588.379,-497.559,0
1010.271,-801.758,-1000.000,-989.258,963.379,-970.703,0
1010.275,272.949,-823.242,-944.336,271.484,-885.254,0
1010.279,-1000.000,-103.027,-747.070,-1000.000,-582.520,0
1010.282,-660.645,-49.805,-717.773,-1000.000,-412.109,0
1010.286,-998.047,-782.227,-924.805,375.000,-666.016,0
1010.290,440.918,-984.863,-987.793,458.496,-970.215,0
1010.294,-1000.000,-326.660,-801.270,-975.098,-637.207,0
1010.298,-1000.000,62.012,-681.152,-1000.000,-494.141,0
1010.302,249.023,-538.086,-868.652,-47.852,-679.688,0
1010.306,948.242,-1000.000,-1000.000,865.234,-885.742,0
1010.310,-583.008,-570.312,-868.652,-558.105,-768.555,0
1010.314,-1000.000,69.824,-676.270,-1000.000,-485.840,0
1010.318,-165.527,-385.742,-807.617,-234.863,-697.754,0
1010.322,-832.520,-1000.000,-999.023,-876.953,-1000.000,0
1010.325,61.523,-726.562,-908.203,58.594,-837.402,0
1010.329,-1000.000,2.930,-675.781,-1000.000,-490.723,0
1010.333,-321.777,-201.660,-719.727,-659.180,-389.160,0
1010.337,-836.426,-972.656,-987.793,927.734,-883.789,0
1010.341,278.809,-853.027,-887.207,313.477,-626.953,0
1010.345,-1000.000,-140.137,-638.184,-1000.000,-132.324,0
1010.349,-827.148,-30.762,-706.055,-1000.000,-519.043,0
1010.353,801.270,-732.910,-935.059,285.156,-876.953,0
1010.357,572.754,-1000.000,-971.680,586.426,-894.043,0
1010.361,-951.172,-390.625,-778.809,-909.668,-522.461,0
1010.364,-1000.000,77.637,-638.672,-1000.000,-354.980,0
1010.368,100.098,-478.027,-809.082,-105.957,-602.539,0
1010.372,-935.059,-1000.000,-1000.000,987.793,-1000.000,0
1010.376,-375.488,-606.445,-843.262,-352.539,-662.598,0
1010.380,-1000.000,94.727,-586.426,-1000.000,-134.277,0
1010.384,-175.781,-329.102,-759.766,-324.219,-470.215,0
1010.388,-816.895,-1000.000,-993.652,-884.766,-958.496,0
1010.392,182.129,-767.090,-934.082,170.898,-916.992,0
1010.396,-1000.000,-14.648,-645.996,-1000.000,-285.156,0
1010.400,-444.824,-116.699,-641.602,-846.680,-71.777,0
1010.404,-875.000,-910.645,-964.355,719.238,-826.660,0
1010.407,283.203,-915.527,-971.680,346.680,-957.031,0
1010.411,-1000.000,-220.703,-764.160,-1000.000,-589.355,0
1010.415,-953.613,28.809,-676.270,-1000.000,-417.480,0
1010.419,604.980,-642.090,-893.066,125.488,-755.859,0
1010.423,700.684,-1000.000,-996.094,594.727,-947.754,0
1010.427,-878.418,-443.848,-801.758,-861.328,-489.746,0
1010.431,-1000.000,112.793,-615.234,-1000.000,-229.004,0
1010.435,-39.062,-424.805,-791.504,-128.906,-333.008,0
1010.439,-846.191,-1000.000,-1000.000,-963.379,-826.172,0
1010.443,-159.180,-657.227,-897.461,-250.000,-845.703,0
1010.447,-1000.000,55.176,-700.684,-1000.000,-503.418,0
1010.450,-186.035,-291.504,-803.711,-481.445,-631.836,0
1010.454,-806.152,-1000.000,-992.676,-959.473,-934.082,0
1010.458,276.855,-794.922,-936.523,215.332,-879.395,0
1010.462,-1000.000,-64.941,-730.469,-1000.000,-534.180,0
1010.466,-562.988,-85.449,-748.535,-1000.000,-540.039,0
1010.470,-918.945,-842.773,-965.820,469.238,-904.785,0
1010.474,361.328,-950.684,-971.680,403.320,-893.066,0
1010.478,-1000.000,-255.371,-760.254,-1000.000,-432.617,0
1010.482,-1000.000,72.266,-674.805,-1000.000,-364.746,0
1010.486,383.789,-572.266,-895.508,-1.953,-798.340,0
1010.489,851.074,-1000.000,-980.469,777.344,-844.238,0
1010.493,-719.238,-492.188,-785.645,-674.805,-315.430,0
1010.497,-1000.000,101.562,-674.316,-1000.000,-366.699,0
1010.501,-155.273,-407.227,-841.309,-204.102,-744.141,0
1010.505,-844.727,-1000.000,-998.047,-944.824,-1000.000,0
1010.509,-23.438,-685.547,-889.648,-140.137,-733.398,0
1010.513,-1000.000,36.133,-691.895,-1000.000,-423.828,0
1010.517,-227.539,-246.582,-792.969,-653.809,-604.980,0
1010.521,-811.523,-998.047,-984.863,900.879,-919.922,0
1010.525,274.902,-839.355,-959.473,284.668,-931.641,0
1010.529,-1000.000,-88.379,-655.762,-1000.000,-161.133,0
1010.532,-712.891,-12.695,-633.301,-1000.000,-75.195,0
1010.536,945.312,-777.344,-954.102,289.062,-867.188,0
1010.540,483.398,-992.188,-990.234,433.105,-985.352,0
1010.544,-993.164,-326.172,-767.578,-980.469,-472.168,0
1010.548,-1000.000,87.891,-631.836,-1000.000,-253.906,0
1010.552,218.750,-520.020,-862.793,-60.547,-746.582,0
1010.556,974.609,-1000.000,-1000.000,790.527,-1000.000,0
1010.560,-543.457,-573.242,-868.164,-627.930,-766.602,0
1010.564,-1000.000,95.215,-631.348,-1000.000,-319.336,0
1010.568,-167.480,-347.656,-751.953,-291.016,-377.441,0
1010.572,-830.078,-1000.000,-1000.000,-928.223,-955.078,0
1010.575,89.844,-733.398,-912.109,-11.230,-829.102,0
1010.579,-1000.000,-8.301,-693.359,-1000.000,-513.672,0
1010.583,-373.047,-184.570,-725.586,-751.465,-313.477,0
1010.587,-854.492,-942.383,-952.637,807.129,-561.035,0
1010.591,283.691,-881.836,-961.914,301.270,-919.434,0
1010.595,-1000.000,-180.664,-742.188,-1000.000,-560.059,0
1010.599,-866.699,-10.742,-693.359,-1000.000,-469.238,0
1010.603,747.070,-699.707,-914.062,94.238,-779.785,0
1010.607,602.051,-1000.000,-995.605,479.004,-966.797,0
1010.611,-937.012,-406.250,-812.500,-929.688,-653.809,0
1010.614,-1000.000,99.121,-608.887,-1000.000,-225.098,0
1010.618,69.824,-458.496,-798.828,-121.094,-576.660,0
1010.622,-930.176,-1000.000,-998.535,960.938,-843.262,0
1010.626,-356.445,-624.023,-856.445,-378.418,-475.098,0
1010.630,-1000.000,63.965,-675.781,-1000.000,-447.754,0
1010.634,-178.223,-326.172,-798.828,-470.215,-668.945,0
1010.638,-815.430,-1000.000,-995.117,-987.305,-975.098,0
1010.642,214.844,-767.090,-924.316,104.492,-800.781,0
1010.646,-1000.000,-37.598,-708.496,-1000.000,-487.793,0
1010.650,-491.211,-128.906,-747.070,-974.121,-531.738,0
1010.654,-893.555,-892.578,-977.539,474.609,-918.945,0
1010.657,287.109,-909.180,-944.824,336.914,-806.152,0
1010.661,-1000.000,-192.383,-695.312,-1000.000,-250.977,0
1010.665,-984.375,72.754,-627.441,-1000.000,-195.312,0
1010.669,554.688,-602.539,-868.652,38.574,-613.281,0
1010.673,714.844,-1000.000,-1000.000,492.676,-1000.000,0
1010.677,-867.676,-434.570,-786.621,-901.367,-459.961,0
1010.681,-1000.000,157.227,-553.711,-1000.000,77.148,0
1010.685,-83.008,-409.668,-807.617,-196.777,-590.820,0
1010.689,-850.098,-1000.000,-1000.000,853.516,-1000.000,0
1010.693,-128.418,-649.902,-895.020,-468.750,-784.180,0
1010.697,-1000.000,87.891,-674.316,-1000.000,-361.328,0
1010.700,-187.012,-245.605,-776.367,-710.938,-500.977,0
1010.704,-805.176,-1000.000,-995.605,768.066,-974.121,0
1010.708,276.855,-796.387,-929.688,150.391,-767.090,0
1010.712,-1000.000,-56.641,-708.008,-1000.000,-319.824,0
1010.716,-584.961,-36.133,-679.688,-1000.000,-51.270,0
1010.720,-929.688,-795.410,-916.016,190.918,-483.398,0
1010.724,382.812,-963.379,-993.652,298.828,-989.746,0
1010.728,-1000.000,-269.531,-880.859,-1000.000,-668.945,0
1010.732,-1000.000,121.582,-822.754,-1000.000,-405.273,0
1010.736,269.043,-512.207,-925.781,-106.445,-616.699,0
1010.739,984.375,-1000.000,-985.840,263.184,-1000.000,0
1010.743,-544.922,-587.402,-934.570,-955.566,-820.801,0
1010.747,-1000.000,85.449,-715.820,-1000.000,-596.680,0
1010.751,-151.367,-303.223,-744.629,-520.020,-629.395,0
1010.755,-833.008,-1000.000,-1000.000,388.672,-873.535,0
1010.759,33.203,-636.719,-831.543,-672.363,-671.875,0
1010.763,-1000.000,96.191,-620.605,-1000.000,-343.262,0
1010.767,-295.898,-282.715,-825.195,-921.387,-592.773,0
1010.771,-827.637,-1000.000,-982.910,478.516,-830.078,0
1010.775,272.461,-862.305,-969.727,235.840,-584.961,0
1010.779,-1000.000,-205.566,-818.359,-1000.000,-383.301,0
1010.782,-854.980,-18.066,-706.543,-1000.000,-327.637,0
1010.786,767.090,-707.520,-906.250,7.324,-705.566,0
1010.790,453.125,-1000.000,-994.629,295.898,-878.418,0
1010.794,-1000.000,-415.039,-886.230,-986.328,-507.812,0
1010.798,-1000.000,-57.617,-825.684,-1000.000,-280.762,0
1010.802,116.211,-571.289,-910.156,-54.688,-503.418,0
1010.806,997.070,-1000.000,-1000.000,493.652,-981.445,0
1010.810,-486.328,-480.469,-718.750,-903.809,-310.547,0
1010.814,-1000.000,320.801,-323.730,-1000.000,9.277,0
1010.818,-172.852,-180.664,-606.934,-837.891,-638.184,0
1010.822,-821.777,-1000.000,-1000.000,62.500,-993.164,0
1010.825,150.391,-735.352,-886.719,-523.926,-772.949,0
1010.829,-1000.000,-14.648,-648.438,-1000.000,-338.867,0
1010.833,-395.020,-204.590,-780.762,-1000.000,-541.992,0
1010.837,-854.492,-941.895,-983.398,30.762,-915.039,0
1010.841,276.367,-867.188,-958.008,11.230,-840.820,0
1010.845,-1000.000,-116.699,-723.145,-1000.000,-375.000,0
1010.849,-946.289,41.504,-673.340,-1000.000,-147.949,0
1010.853,627.441,-686.523,-930.176,-15.137,-615.234,0
1010.857,620.117,-1000.000,-986.328,304.688,-953.125,0
1010.861,-929.199,-527.344,-938.477,-972.656,-731.445,0
1010.864,-1000.000,-5.859,-801.758,-1000.000,-229.980,0
1010.868,-4.883,-453.125,-827.637,-317.383,-238.281,0
1010.872,-888.672,-1000.000,-1000.000,304.688,-961.914,0
1010.876,-252.930,-581.055,-891.113,-887.695,-808.594,0
1010.880,-1000.000,154.297,-688.477,-1000.000,-476.074,0
1010.884,-184.570,-263.184,-796.387,-876.465,-624.023,0
1010.888,-807.617,-1000.000,-994.629,-34.668,-947.754,0
1010.892,276.855,-761.719,-918.945,-535.645,-897.949,0
1010.896,-1000.000,47.363,-607.422,-1000.000,-440.430,0
1010.900,-496.094,54.199,-599.121,-1000.000,-327.637,0
1010.904,-884.277,-792.969,-926.758,-46.387,-586.426,0
1010.907,329.102,-936.035,-984.863,79.102,-812.500,0
1010.911,-1000.000,-256.348,-878.906,-1000.000,-709.961,0
1010.915,-980.469,-65.430,-896.484,-1000.000,-627.930,0
1010.919,568.848,-682.617,-968.750,-101.074,-873.535,0
1010.923,731.934,-1000.000,-985.352,256.836,-993.652,0
1010.927,-842.773,-504.395,-895.996,-963.379,-729.980,0
1010.931,-1000.000,68.359,-766.602,-1000.000,-462.891,0
1010.935,-142.090,-433.105,-880.371,-474.121,-715.820,0
1010.939,-843.262,-1000.000,-992.188,364.746,-976.074,0
1010.943,-46.387,-704.102,-932.617,-748.047,-663.086,0
1010.947,-1000.000,-24.902,-775.879,-1000.000,-369.629,0
1010.950,-191.895,-286.621,-816.895,-956.543,-608.398,0
1010.954,-800.293,-1000.000,-1000.000,-23.926,-1000.000,0
1010.958,276.367,-768.066,-853.027,-335.449,-641.602,0
1010.962,-1000.000,18.066,-507.324,-1000.000,-59.082,0
1010.966,-568.359,-45.898,-661.621,-1000.000,-545.410,0
1010.970,-918.945,-818.848,-962.402,-62.012,-959.961,0
1010.974,448.730,-973.633,-980.957,167.480,-950.195,0
1010.978,-990.234,-332.031,-804.199,-1000.000,-610.840,0
1010.982,-1000.000,26.855,-710.938,-1000.000,-468.750,0
1010.986,260.742,-565.918,-898.438,-143.555,-808.594,0
1010.989,917.969,-1000.000,-993.652,326.172,-950.195,0
1010.993,-621.582,-593.262,-900.879,-922.852,-713.379,0
1010.997,-1000.000,-30.273,-721.191,-1000.000,-155.273,0
1011.001,-164.062,-459.961,-815.430,-574.707,-348.633,0
1011.005,-834.961,-1000.000,-998.047,423.828,-1000.000,0
1011.009,41.992,-728.027,-924.805,-588.867,-793.945,0
1011.013,-1000.000,-14.648,-743.164,-1000.000,-426.270,0
1011.017,-283.691,-213.379,-786.621,-1000.000,-511.230,0
1011.021,-824.219,-971.191,-982.422,62.012,-902.832,0
1011.025,281.250,-858.887,-953.125,-118.652,-929.688,0
1011.029,-1000.000,-164.062,-755.371,-1000.000,-740.723,0
1011.032,-728.027,-2.930,-668.457,-1000.000,-570.801,0
1011.036,922.363,-698.730,-881.836,-94.727,-713.379,0
1011.040,591.797,-1000.000,-997.070,217.773,-955.078,0
1011.044,-946.777,-337.891,-814.453,-986.816,-730.957,0
1011.048,-1000.000,92.285,-725.098,-1000.000,-685.059,0
1011.052,197.266,-504.883,-902.832,-226.562,-791.016,0
1011.056,-886.719,-1000.000,-993.164,243.164,-905.273,0
1011.060,-322.754,-642.090,-925.781,-934.570,-874.023,0
1011.064,-1000.000,-26.855,-822.266,-1000.000,-652.344,0
1011.068,-178.711,-407.715,-886.230,-724.121,-774.414,0
1011.072,-811.523,-1000.000,-984.375,422.363,-999.512,0
1011.075,188.477,-775.391,-958.008,-391.113,-899.902,0
1011.079,-1000.000,-106.445,-849.609,-1000.000,-575.195,0
1011.083,-381.836,-241.211,-862.305,-1000.000,-532.715,0
1011.087,-846.191,-946.777,-988.281,125.000,-951.660,0
1011.091,282.227,-879.883,-927.734,175.781,-679.199,0
1011.095,-1000.000,-186.523,-722.656,-1000.000,-318.848,0
1011.099,-846.191,29.785,-703.613,-1000.000,-708.008,0
1011.103,735.840,-644.043,-912.109,-55.176,-950.195,0
1011.107,787.598,-1000.000,-987.305,259.277,-930.176,0
1011.111,-785.645,-426.758,-812.012,-971.191,-708.008,0
1011.114,-1000.000,69.336,-698.242,-1000.000,-702.637,0
1011.118,54.688,-466.797,-856.934,-297.852,-854.004,0
1011.122,-828.613,-1000.000,-1000.000,499.512,-1000.000,0
1011.126,-168.457,-648.926,-878.906,-770.508,-765.137,0
1011.130,-1000.000,12.207,-681.641,-1000.000,-352.539,0
1011.134,-187.988,-369.141,-822.266,-824.707,-585.938,0
1011.138,-805.664,-1000.000,-983.398,515.625,-944.824,0
1011.142,276.855,-827.148,-972.656,-10.742,-978.027,0
1011.146,-1000.000,-173.340,-788.086,-1000.000,-456.543,0
1011.150,-551.758,-190.430,-746.094,-1000.000,-196.289,0
1011.154,-915.039,-886.719,-967.773,199.219,-841.309,0
1011.157,369.629,-949.219,-980.957,306.152,-986.816,0
1011.161,-1000.000,-319.336,-811.523,-1000.000,-730.957,0
1011.165,-986.328,-15.625,-689.453,-1000.000,-586.914,0
1011.169,523.926,-614.746,-875.488,-34.668,-810.547,0
1011.173,864.746,-1000.000,-1000.000,367.676,-996.094,0
1011.177,-702.148,-496.582,-793.945,-932.617,-636.230,0
1011.181,-1000.000,104.004,-559.570,-1000.000,-379.395,0
1011.185,-116.699,-396.484,-751.953,-296.875,-395.020,0
1011.189,-821.777,-1000.000,-1000.000,680.176,-767.578,0
1011.193,15.625,-707.031,-912.598,-604.004,-935.547,0
1011.197,-1000.000,-31.738,-708.496,-1000.000,-576.172,0
1011.200,-199.707,-318.848,-791.992,-819.824,-569.824,0
1011.204,-796.875,-1000.000,-989.258,610.840,-908.691,0
1011.208,272.461,-844.238,-953.125,149.414,-920.410,0
1011.212,-1000.000,-194.336,-798.340,-1000.000,-643.066,0
1011.216,-658.691,-161.621,-814.453,-1000.000,-644.043,0
1011.220,-995.605,-827.148,-968.750,106.445,-926.758,0
1011.224,482.422,-985.840,-982.422,322.754,-937.012,0
1011.228,-994.141,-377.930,-825.195,-995.117,-569.824,0
1011.232,-1000.000,10.254,-713.379,-1000.000,-508.301,0
1011.236,244.629,-554.199,-888.672,-74.219,-884.766,0
1011.239,-975.586,-1000.000,-988.770,541.016,-856.445,0
1011.243,-476.074,-532.715,-784.668,-830.566,-406.250,0
1011.247,-1000.000,96.680,-623.535,-1000.000,-538.086,0
1011.251,-173.828,-370.117,-805.664,-536.621,-848.145,0
1011.255,-817.871,-1000.000,-1000.000,693.359,-994.141,0
1011.259,142.578,-716.797,-896.973,-324.219,-803.223,0
1011.263,-1000.000,3.418,-687.988,-1000.000,-592.285,0
1011.267,-306.152,-215.332,-782.227,-946.289,-728.027,0
1011.271,-819.824,-958.984,-979.004,431.641,-925.293,0
1011.275,273.926,-885.254,-977.539,250.000,-985.840,0
1011.279,-1000.000,-194.336,-740.723,-1000.000,-353.027,0
1011.282,-816.406,-71.289,-724.609,-1000.000,-249.512,0
1011.286,814.941,-758.789,-967.773,58.105,-913.086,0
1011.290,597.168,-1000.000,-991.211,366.699,-1000.000,0
1011.294,-944.824,-431.641,-862.793,-964.844,-695.801,0
1011.298,-1000.000,31.738,-735.840,-1000.000,-486.816,0
1011.302,103.516,-505.859,-887.207,-118.652,-815.430,0
1011.306,-854.492,-1000.000,-999.512,635.254,-1000.000,0
1011.310,-238.770,-616.211,-890.625,-741.699,-873.535,0
1011.314,-1000.000,83.984,-645.508,-1000.000,-518.555,0
1011.318,-186.035,-299.316,-735.840,-596.191,-508.789,0
1011.322,-804.199,-1000.000,-997.559,782.227,-958.008,0
1011.325,266.113,-756.348,-919.922,-82.031,-882.324,0
1011.329,-1000.000,-33.691,-709.473,-1000.000,-727.051,0
1011.333,-416.992,-145.996,-729.980,-954.590,-537.598,0
1011.337,-848.145,-889.648,-943.359,461.426,-629.883,0
1011.341,272.949,-924.316,-976.074,324.707,-966.797,0
1011.345,-1000.000,-270.020,-802.734,-1000.000,-734.863,0
1011.349,-958.496,-62.012,-763.672,-1000.000,-650.391,0
1011.353,597.168,-685.059,-932.617,53.711,-857.422,0
1011.357,715.332,-1000.000,-993.652,526.367,-992.188,0
1011.361,-869.629,-526.367,-891.113,-895.020,-799.805,0
1011.364,-1000.000,-8.789,-728.027,-1000.000,-412.598,0
1011.368,-45.898,-482.422,-841.309,-185.059,-663.086,0
1011.372,-836.914,-1000.000,-996.582,-991.699,-882.812,0
1011.376,-120.117,-682.617,-886.719,-261.230,-587.402,0
1011.380,-1000.000,-8.789,-699.707,-1000.000,-623.047,0
1011.384,-188.965,-326.172,-793.945,-665.527,-811.523,0
1011.388,-803.223,-1000.000,-993.164,836.426,-982.422,0
1011.392,276.855,-800.781,-925.293,167.480,-890.137,0
1011.396,-1000.000,-90.820,-690.918,-1000.000,-683.105,0
1011.400,-535.645,-110.352,-708.984,-1000.000,-710.449,0
1011.404,-900.391,-845.215,-959.473,277.344,-971.680,0
1011.407,395.020,-950.684,-957.031,344.238,-858.398,0
1011.411,-1000.000,-294.434,-724.121,-1000.000,-437.500,0
1011.415,-1000.000,-8.789,-678.711,-1000.000,-461.914,0
1011.419,394.043,-611.816,-895.020,-20.508,-792.969,0
1011.423,885.254,-1000.000,-1000.000,629.883,-1000.000,0
1011.427,-675.293,-557.129,-841.797,-795.410,-592.773,0
1011.431,-1000.000,14.648,-650.391,-1000.000,-98.145,0
1011.435,-159.668,-460.449,-841.309,-231.934,-605.957,0
1011.439,-831.543,-1000.000,-999.512,998.535,-1000.000,0
1011.443,28.320,-719.238,-920.898,-245.605,-874.023,0
1011.447,-1000.000,-32.227,-725.586,-1000.000,-544.922,0
1011.450,-199.219,-281.738,-792.480,-879.883,-660.156,0
1011.454,-796.387,-1000.000,-993.652,569.824,-1000.000,0
1011.458,274.414,-832.031,-925.781,270.508,-813.965,0
1011.462,-1000.000,-126.953,-710.449,-1000.000,-575.195,0
1011.466,-628.418,-14.648,-624.512,-1000.000,-321.289,0
1011.470,-965.820,-734.863,-859.863,157.715,-539.062,0
1011.474,543.457,-996.094,-999.512,344.238,-1000.000,0
1011.478,-957.520,-360.840,-824.219,-992.676,-793.457,0
1011.482,-1000.000,36.621,-708.008,-1000.000,-608.887,0
1011.486,229.980,-532.227,-865.723,-64.453,-732.422,0
1011.489,-944.824,-1000.000,-1000.000,680.664,-1000.000,0
1011.493,-423.828,-601.562,-883.301,-728.516,-740.234,0
1011.497,-1000.000,6.348,-764.160,-1000.000,-550.781,0
1011.501,-175.781,-419.922,-877.441,-366.211,-755.371,0
1011.505,-814.453,-1000.000,-990.234,-981.934,-966.309,0
1011.509,160.645,-752.441,-928.711,-60.547,-805.176,0
1011.513,-1000.000,-73.730,-787.109,-1000.000,-561.523,0
1011.517,-322.754,-247.070,-839.844,-919.434,-767.090,0
1011.521,-825.195,-957.031,-980.469,538.086,-946.289,0
1011.525,279.297,-885.254,-963.379,323.242,-780.762,0
1011.529,-1000.000,-202.148,-791.016,-1000.000,-645.508,0
1011.532,-783.691,-20.020,-744.629,-1000.000,-721.680,0
1011.536,847.168,-697.754,-931.641,61.035,-916.504,0
1011.540,677.246,-1000.000,-993.652,426.758,-980.469,0
1011.544,-888.672,-431.641,-847.656,-942.871,-815.918,0
1011.548,-1000.000,54.688,-695.801,-1000.000,-645.508,0
1011.552,87.891,-479.004,-835.938,-124.023,-740.723,0
1011.556,-834.961,-1000.000,-1000.000,890.625,-1000.000,0
1011.560,-193.359,-625.000,-829.590,-466.309,-528.809,0
1011.564,-1000.000,14.160,-665.039,-1000.000,-229.980,0
1011.568,-187.012,-400.391,-862.793,-466.797,-809.570,0
1011.572,-804.199,-1000.000,-994.141,-979.980,-1000.000,0
1011.575,269.531,-790.039,-929.199,154.297,-842.773,0
1011.579,-1000.000,-118.164,-753.418,-1000.000,-533.691,0
1011.583,-472.168,-218.750,-812.012,-948.242,-712.402,0
1011.587,-873.047,-913.574,-975.098,538.086,-961.426,0
1011.591,337.402,-936.035,-977.051,329.590,-969.727,0
1011.595,-1000.000,-291.992,-779.297,-1000.000,-646.973,0
1011.599,-949.219,-6.348,-641.113,-1000.000,-386.719,0
1011.603,585.449,-631.836,-870.117,53.711,-745.117,0
1011.607,838.379,-1000.000,-1000.000,601.074,-1000.000,0
1011.611,-736.328,-502.441,-830.566,-845.215,-775.391,0
1011.614,-1000.000,74.707,-574.707,-1000.000,-285.645,0
1011.618,-40.039,-424.316,-736.816,-167.969,-431.641,0
1011.622,-817.871,-1000.000,-1000.000,-989.746,-998.047,0
1011.626,-60.547,-699.219,-909.668,-257.812,-891.113,0
1011.630,-1000.000,-44.434,-735.352,-1000.000,-661.621,0
1011.634,-194.336,-351.074,-819.824,-576.660,-717.773,0
1011.638,-800.781,-1000.000,-987.305,957.031,-967.773,0
1011.642,276.367,-828.125,-945.801,249.023,-865.234,0
1011.646,-1000.000,-162.598,-753.418,-1000.000,-448.242,0
1011.650,-584.473,-166.992,-776.855,-1000.000,-519.531,0
1011.654,-931.641,-851.562,-969.238,416.016,-824.219,0
1011.657,445.312,-974.609,-981.445,407.227,-902.344,0
1011.661,-1000.000,-364.258,-843.262,-1000.000,-780.273,0
1011.665,-1000.000,-8.789,-748.535,-1000.000,-689.453,0
1011.669,352.539,-579.102,-899.902,-26.367,-874.512,0
1011.673,980.957,-1000.000,-1000.000,671.875,-998.047,0
1011.677,-552.246,-549.805,-871.094,-750.977,-838.379,0
1011.681,-1000.000,64.453,-697.754,-1000.000,-667.480,0
1011.685,-158.203,-402.832,-824.707,-274.414,-826.172,0
1011.689,-819.336,-1000.000,-1000.000,939.453,-993.164,0
1011.693,90.332,-707.031,-896.484,-264.160,-737.793,0
1011.697,-1000.000,9.277,-679.199,-1000.000,-437.988,0
1011.700,-235.840,-248.535,-786.133,-776.855,-657.227,0
1011.704,-802.246,-992.676,-1000.000,732.422,-1000.000,0
1011.708,271.484,-844.727,-913.574,291.992,-714.844,0
1011.712,-1000.000,-154.785,-699.707,-1000.000,-200.684,0
1011.716,-734.375,-94.727,-787.109,-1000.000,-566.406,0
1011.720,918.457,-775.879,-967.773,202.148,-936.035,0
1011.724,569.824,-1000.000,-985.352,446.289,-971.680,0
1011.728,-956.543,-400.879,-845.703,-961.426,-653.809,0
1011.732,-1000.000,26.367,-730.469,-1000.000,-456.543,0
1011.736,195.312,-528.320,-892.578,-72.266,-799.316,0
1011.739,-913.086,-1000.000,-996.582,804.199,-992.188,0
1011.743,-370.117,-600.098,-889.160,-599.121,-808.594,0
1011.747,-1000.000,97.168,-613.281,-1000.000,-226.074,0
1011.751,-179.688,-318.359,-717.773,-422.363,-360.840,0
1011.755,-811.523,-1000.000,-1000.000,988.770,-1000.000,0
1011.759,211.426,-749.023,-926.758,-32.715,-909.180,0
1011.763,-1000.000,-25.391,-712.891,-1000.000,-585.449,0
1011.767,-385.254,-179.688,-755.371,-979.492,-553.711,0
1011.771,-843.750,-934.082,-979.004,450.195,-937.500,0
1011.775,279.297,-896.973,-963.867,343.750,-922.852,0
1011.779,-1000.000,-219.727,-792.480,-1000.000,-670.898,0
1011.782,-876.465,-24.414,-726.074,-1000.000,-463.867,0
1011.786,728.516,-681.641,-903.809,124.023,-659.668,0
1011.790,663.574,-1000.000,-997.070,580.566,-977.051,0
1011.794,-897.461,-458.496,-825.684,-880.371,-566.406,0
1011.798,-1000.000,37.598,-692.871,-1000.000,-464.355,0
1011.802,-2.441,-483.887,-855.469,-98.145,-649.414,0
1011.806,-859.863,-1000.000,-1000.000,926.758,-822.266,0
1011.810,-201.172,-651.367,-890.625,-438.477,-831.543,0
1011.814,-1000.000,28.809,-682.129,-1000.000,-562.988,0
1011.818,-185.547,-331.543,-789.062,-490.234,-710.449,0
1011.822,-806.152,-1000.000,-996.094,-990.723,-990.723,0
1011.825,276.367,-786.621,-920.410,177.246,-872.070,0
1011.829,-1000.000,-66.406,-673.340,-1000.000,-567.383,0
1011.833,-517.090,-109.375,-664.062,-978.516,-396.484,0
1011.837,-893.555,-864.746,-951.660,502.930,-811.523,0
1011.841,319.824,-935.059,-924.316,406.738,-682.129,0
1011.845,-1000.000,-271.484,-694.336,-1000.000,-249.512,0
1011.849,-1000.000,-8.789,-683.105,-1000.000,-459.961,0
1011.853,444.824,-623.535,-885.742,24.414,-752.930,0
1011.857,801.270,-1000.000,-993.164,697.266,-947.266,0
1011.861,-775.391,-520.508,-831.543,-753.418,-601.562,0
1011.864,-1000.000,32.227,-694.824,-1000.000,-513.184,0
1011.868,-129.883,-450.684,-836.914,-186.523,-755.371,0
1011.872,-841.797,-1000.000,-1000.000,-954.590,-1000.000,0
1011.876,-51.758,-685.547,-881.836,-177.734,-745.117,0
1011.880,-1000.000,36.621,-624.512,-1000.000,-264.160,0
1011.884,-191.895,-258.301,-742.188,-633.301,-453.613,0
1011.888,-801.758,-1000.000,-984.375,906.250,-896.484,0
1011.892,276.367,-825.195,-950.195,246.094,-963.379,0
1011.896,-1000.000,-82.520,-662.109,-1000.000,-408.203,0
1011.900,-611.328,-16.113,-598.633,-1000.000,-133.789,0
1011.904,-946.777,-787.109,-931.641,301.758,-820.801,0
1011.907,458.008,-976.562,-978.027,392.090,-906.738,0
1011.911,-999.512,-316.895,-773.926,-998.047,-549.316,0
1011.915,-1000.000,54.688,-679.688,-1000.000,-495.605,0
1011.919,273.926,-541.016,-869.141,-52.734,-755.371,0
1011.923,972.656,-1000.000,-1000.000,782.715,-1000.000,0
1011.927,-556.152,-562.500,-854.004,-644.043,-634.766,0
1011.931,-1000.000,67.871,-662.109,-1000.000,-340.820,0
1011.935,-166.504,-386.719,-800.293,-226.074,-358.887,0
1011.939,-829.102,-1000.000,-996.094,-905.273,-765.137,0
1011.943,68.848,-731.445,-925.293,-36.133,-905.762,0
1011.947,-1000.000,-19.531,-743.652,-1000.000,-617.188,0
1011.950,-291.992,-226.562,-805.176,-740.234,-675.781,0
1011.954,-824.219,-971.680,-984.863,815.430,-908.691,0
1011.958,278.809,-861.816,-953.125,300.781,-912.598,0
1011.962,-1000.000,-153.809,-752.930,-1000.000,-678.223,0
1011.966,-768.555,-0.977,-689.941,-1000.000,-538.574,0
1011.970,876.953,-706.055,-905.762,215.332,-750.977,0
1011.974,590.332,-1000.000,-995.117,512.695,-966.309,0
1011.978,-938.965,-377.441,-789.062,-936.035,-590.332,0
1011.982,-1000.000,83.008,-660.645,-1000.000,-479.980,0
1011.986,128.418,-492.676,-864.746,-134.277,-859.375,0
1011.989,-928.223,-1000.000,-993.164,991.211,-899.902,0
1011.993,-372.070,-607.910,-828.613,-325.195,-441.406,0
1011.997,-1000.000,40.527,-690.430,-1000.000,-446.777,0
1012.001,-176.758,-373.535,-833.008,-360.840,-770.996,0
1012.005,-816.406,-1000.000,-994.141,-916.016,-998.535,0
1012.009,185.059,-762.207,-911.621,148.438,-783.203,0
1012.013,-1000.000,-56.641,-714.355,-1000.000,-516.113,0
1012.017,-439.941,-189.453,-774.902,-846.680,-627.930,0
1012.021,-872.070,-922.852,-973.145,713.867,-875.977,0
1012.025,283.691,-917.969,-975.586,345.703,-979.004,0
1012.029,-1000.000,-205.078,-667.969,-1000.000,-259.277,0
1012.032,-939.453,36.133,-567.383,-1000.000,-108.398,0
1012.036,626.465,-659.180,-896.973,111.328,-846.191,0
1012.040,700.684,-1000.000,-1000.000,635.254,-1000.000,0
1012.044,-876.953,-456.543,-800.293,-839.844,-667.480,0
1012.048,-1000.000,85.449,-602.051,-1000.000,-385.254,0
1012.052,-35.156,-453.613,-811.035,-140.625,-742.676,0
1012.056,-848.633,-1000.000,-1000.000,-950.195,-1000.000,0
1012.060,-164.551,-669.922,-893.555,-214.355,-841.797,0
1012.064,-1000.000,30.762,-643.066,-1000.000,-393.066,0
1012.068,-186.035,-302.734,-730.957,-453.125,-365.234,0
1012.072,-806.641,-1000.000,-992.676,-935.059,-918.457,0
1012.075,276.855,-806.641,-935.547,245.117,-871.582,0
1012.079,-1000.000,-115.723,-738.770,-1000.000,-615.234,0
1012.083,-574.707,-118.652,-708.496,-1000.000,-365.723,0
1012.087,-926.758,-834.961,-913.574,495.605,-518.555,0
1012.091,359.863,-958.984,-983.887,408.203,-957.520,0
1012.095,-1000.000,-296.387,-787.598,-1000.000,-677.734,0
1012.099,-1000.000,36.621,-681.641,-1000.000,-548.828,0
1012.103,388.672,-579.590,-875.488,17.578,-791.504,0
1012.107,854.492,-1000.000,-1000.000,718.262,-994.629,0
1012.111,-716.309,-514.160,-844.238,-733.887,-763.672,0
1012.114,-1000.000,107.910,-608.887,-1000.000,-326.660,0
1012.118,-149.902,-391.602,-772.461,-207.031,-594.727,0
1012.122,-841.797,-1000.000,-1000.000,-944.336,-889.648,0
1012.126,-17.578,-694.824,-893.066,-149.902,-603.516,0
1012.130,-1000.000,17.090,-699.707,-1000.000,-539.551,0
1012.134,-227.539,-264.160,-793.457,-636.230,-695.312,0
1012.138,-811.035,-1000.000,-987.305,914.551,-958.008,0
1012.142,274.902,-839.355,-952.637,282.227,-893.555,0
1012.146,-1000.000,-128.906,-734.863,-1000.000,-481.934,0
1012.150,-708.008,-60.059,-727.051,-1000.000,-452.148,0
1012.154,950.684,-786.133,-960.938,311.035,-915.039,0
1012.157,480.957,-984.863,-967.773,468.262,-865.234,0
1012.161,-995.117,-325.195,-754.883,-966.797,-373.047,0
1012.165,-1000.000,85.938,-638.672,-1000.000,-284.668,0
1012.169,223.145,-510.742,-843.750,-57.129,-675.781,0
1012.173,989.258,-1000.000,-1000.000,790.527,-1000.000,0
1012.177,-524.414,-542.969,-813.477,-623.047,-572.266,0
1012.181,-1000.000,148.926,-541.992,-1000.000,-19.043,0
1012.185,-169.922,-342.285,-774.414,-323.730,-599.609,0
1012.189,-825.684,-1000.000,-1000.000,-943.359,-1000.000,0
1012.193,111.328,-724.121,-908.203,-9.766,-845.215,0
1012.197,-1000.000,17.090,-679.688,-1000.000,-467.285,0
1012.200,-351.074,-185.059,-758.301,-812.500,-550.293,0
1012.204,-842.285,-956.055,-987.793,717.773,-970.703,0
1012.208,278.809,-873.535,-945.312,327.148,-822.266,0
1012.212,-1000.000,-167.969,-733.887,-1000.000,-403.320,0
1012.216,-864.258,18.066,-632.812,-1000.000,-81.055,0
1012.220,750.977,-678.711,-859.863,212.891,-457.031,0
1012.224,607.422,-1000.000,-1000.000,520.996,-1000.000,0
1012.228,-937.012,-420.898,-844.727,-927.734,-732.422,0
1012.232,-1000.000,71.777,-684.570,-1000.000,-485.352,0
1012.236,79.102,-466.797,-822.266,-104.004,-648.926,0
1012.239,-909.668,-1000.000,-1000.000,929.199,-1000.000,0
1012.243,-326.660,-621.094,-878.906,-428.223,-796.875,0
1012.247,-1000.000,77.148,-659.180,-1000.000,-526.855,0
1012.251,-180.176,-315.918,-781.738,-400.879,-604.980,0
1012.255,-813.477,-1000.000,-998.047,-925.293,-895.020,0
1012.259,227.539,-765.625,-907.715,164.062,-806.641,0
1012.263,-1000.000,-26.367,-653.809,-1000.000,-368.164,0
1012.267,-492.188,-128.418,-704.102,-927.246,-458.496,0
1012.271,-892.090,-894.531,-968.750,586.914,-860.352,0
1012.275,286.133,-930.176,-965.820,368.164,-737.305,0
1012.279,-1000.000,-255.371,-770.508,-1000.000,-520.996,0
1012.282,-986.816,2.441,-702.637,-1000.000,-547.852,0
1012.286,551.270,-641.602,-902.832,74.219,-806.641,0
1012.290,709.961,-1000.000,-999.023,654.785,-980.469,0
1012.294,-870.605,-492.676,-848.145,-812.988,-731.445,0
1012.298,-1000.000,62.988,-662.598,-1000.000,-477.539,0
1012.302,-88.867,-437.012,-797.363,-176.270,-579.102,0
1012.306,-853.516,-1000.000,-1000.000,-967.773,-1000.000,0
1012.310,-133.789,-640.137,-806.152,-204.590,-476.074,0
1012.314,-1000.000,81.543,-553.711,-1000.000,-48.340,0
1012.318,-186.523,-286.621,-774.414,-559.570,-676.270,0
1012.322,-806.152,-1000.000,-1000.000,978.516,-1000.000,0
1012.325,276.855,-795.410,-902.344,248.535,-757.812,0
1012.329,-1000.000,-64.941,-653.809,-1000.000,-379.883,0
1012.333,-601.074,-77.637,-708.496,-1000.000,-575.195,0
1012.337,-940.918,-823.730,-950.684,410.645,-894.043,0
1012.341,376.465,-967.773,-982.910,408.203,-957.520,0
1012.345,-1000.000,-295.898,-764.648,-1000.000,-539.062,0
1012.349,-1000.000,67.383,-616.699,-1000.000,-216.309,0
1012.353,319.824,-557.129,-851.562,-7.812,-632.324,0
1012.357,860.840,-1000.000,-1000.000,748.047,-985.840,0
1012.361,-707.520,-547.363,-873.047,-698.730,-799.805,0
1012.364,-1000.000,90.332,-626.953,-1000.000,-273.926,0
1012.368,-162.598,-369.141,-730.469,-217.285,-261.230,0
1012.372,-841.797,-1000.000,-1000.000,-927.734,-959.473,0
1012.376,12.207,-708.984,-912.598,-97.168,-869.141,0
1012.380,-1000.000,21.484,-689.941,-1000.000,-507.324,0
1012.384,-270.020,-210.938,-748.047,-714.844,-491.211,0
1012.388,-822.754,-980.469,-980.469,830.566,-878.906,0
1012.392,278.809,-841.797,-946.777,288.086,-911.621,0
1012.396,-1000.000,-94.238,-673.828,-1000.000,-378.418,0
1012.400,-745.605,8.789,-650.879,-1000.000,-353.027,0
1012.404,909.668,-737.793,-926.270,274.902,-661.133,0
1012.407,503.906,-1000.000,-991.699,457.031,-833.008,0
1012.411,-982.422,-356.445,-813.965,-968.750,-706.055,0
1012.415,-1000.000,84.473,-678.711,-1000.000,-528.320,0
1012.419,167.969,-496.582,-854.004,-78.125,-773.926,0
1012.423,997.559,-1000.000,-1000.000,850.586,-1000.000,0
1012.427,-496.582,-587.891,-875.977,-549.316,-776.367,0
1012.431,-1000.000,76.660,-687.500,-1000.000,-490.234,0
1012.435,-170.898,-356.445,-809.570,-328.125,-686.523,0
1012.439,-825.195,-1000.000,-1000.000,-922.852,-994.141,0
1012.443,127.441,-734.375,-897.461,22.461,-668.457,0
1012.447,-1000.000,13.184,-636.719,-1000.000,-229.004,0
1012.450,-400.391,-149.414,-710.938,-830.078,-407.227,0
1012.454,-860.840,-937.012,-991.211,697.754,-968.262,0
1012.458,283.203,-874.512,-912.109,326.660,-711.914,0
1012.462,-1000.000,-141.602,-623.047,-1000.000,-70.312,0
1012.466,-901.367,25.391,-651.855,-1000.000,-402.832,0
1012.470,696.289,-675.781,-912.598,136.719,-856.445,0
1012.474,619.141,-1000.000,-994.629,559.082,-968.750,0
1012.478,-925.293,-408.203,-784.668,-899.902,-590.332,0
1012.482,-1000.000,108.398,-614.258,-1000.000,-387.695,0
1012.486,5.859,-454.102,-820.312,-122.070,-713.379,0
1012.489,-911.621,-1000.000,-999.512,-989.258,-972.168,0
1012.493,-296.875,-645.020,-881.836,-294.922,-782.227,0
1012.497,-1000.000,75.195,-578.125,-1000.000,-104.004,0
1012.501,-179.688,-287.109,-680.176,-402.344,-113.770,0
1012.505,-813.477,-1000.000,-999.512,-915.039,-905.273,0
1012.509,233.398,-785.156,-928.711,192.383,-905.762,0
1012.513,-1000.000,-60.547,-687.500,-1000.000,-489.746,0
1012.517,-525.879,-120.605,-706.055,-944.336,-435.059,0
1012.521,-908.203,-876.465,-962.891,568.359,-876.465,0
1012.525,285.645,-934.082,-966.309,370.117,-926.758,0
1012.529,-1000.000,-248.535,-755.859,-1000.000,-628.418,0
1012.532,-1000.000,60.059,-622.070,-1000.000,-389.160,0
1012.536,449.219,-582.520,-827.637,53.223,-582.031,0
1012.540,755.371,-1000.000,-1000.000,683.105,-984.375,0
1012.544,-825.195,-485.352,-826.660,-785.156,-702.148,0
1012.548,-1000.000,99.609,-633.301,-1000.000,-513.184,0
1012.552,-129.395,-415.527,-802.246,-158.691,-568.359,0
1012.556,-853.027,-1000.000,-1000.000,-945.801,-816.406,0
1012.560,-90.820,-671.875,-876.465,-184.570,-767.578,0
1012.564,-1000.000,51.270,-640.137,-1000.000,-362.305,0
1012.568,-188.477,-270.508,-775.391,-588.379,-610.352,0
1012.572,-803.711,-1000.000,-992.676,955.566,-978.027,0
1012.575,272.949,-818.848,-938.477,256.836,-874.023,0
1012.579,-1000.000,-106.445,-724.121,-1000.000,-547.363,0
1012.583,-662.598,-62.500,-687.988,-1000.000,-337.402,0
1012.587,999.023,-801.758,-942.871,390.137,-766.113,0
1012.591,395.508,-965.820,-940.430,469.727,-706.543,0
1012.595,-1000.000,-287.598,-712.402,-974.609,-225.586,0
1012.599,-1000.000,73.242,-673.828,-1000.000,-491.211,0
1012.603,265.625,-539.551,-875.000,-37.598,-817.383,0
1012.607,928.223,-1000.000,-995.605,740.723,-946.777,0
1012.611,-613.281,-526.855,-824.219,-681.641,-610.840,0
1012.614,-1000.000,116.211,-643.066,-1000.000,-473.145,0
1012.618,-164.551,-362.305,-796.387,-270.996,-703.613,0
1012.622,-834.961,-1000.000,-1000.000,-951.172,-1000.000,0
1012.626,45.898,-701.172,-883.789,-93.262,-746.094,0
1012.630,-1000.000,50.293,-619.141,-1000.000,-232.910,0
1012.634,-299.805,-194.824,-732.910,-765.625,-390.137,0
1012.638,-828.613,-970.215,-978.516,767.090,-858.887,0
1012.642,275.879,-862.305,-965.332,301.758,-961.914,0
1012.646,-1000.000,-125.488,-695.801,-1000.000,-365.234,0
1012.650,-821.289,25.391,-605.469,-1000.000,-26.855,0
1012.654,811.035,-719.727,-914.062,198.242,-717.773,0
1012.657,546.387,-1000.000,-998.535,471.191,-996.094,0
1012.661,-964.844,-379.883,-824.707,-950.684,-660.645,0
1012.665,-1000.000,89.844,-662.109,-1000.000,-407.227,0
1012.669,111.816,-479.492,-830.566,-83.008,-685.547,0
1012.673,-958.984,-1000.000,-1000.000,854.980,-1000.000,0
1012.677,-415.527,-581.055,-839.355,-535.156,-613.281,0
1012.681,-1000.000,121.094,-587.891,-1000.000,-283.691,0
1012.685,-174.316,-303.711,-720.703,-337.402,-229.980,0
1012.689,-819.824,-1000.000,-989.746,-923.828,-679.199,0
1012.693,163.574,-752.441,-922.852,59.082,-906.738,0
1012.697,-1000.000,-7.324,-670.898,-1000.000,-475.586,0
1012.700,-446.289,-144.043,-727.051,-857.422,-470.215,0
1012.704,-877.930,-915.527,-975.098,672.363,-830.566,0
1012.708,283.203,-905.762,-962.891,329.590,-915.527,0
1012.712,-1000.000,-215.332,-761.230,-1000.000,-602.051,0
1012.716,-965.332,5.859,-691.895,-1000.000,-501.953,0
1012.720,592.773,-661.621,-905.273,105.469,-801.270,0
1012.724,656.738,-1000.000,-997.070,617.676,-958.984,0
1012.728,-905.762,-440.430,-793.457,-853.516,-533.691,0
1012.732,-1000.000,88.867,-628.418,-1000.000,-360.352,0
1012.736,-36.133,-450.684,-827.148,-154.297,-779.297,0
1012.739,-873.535,-1000.000,-994.141,-935.059,-903.809,0
1012.743,-210.449,-638.184,-807.617,-172.852,-410.645,0
1012.747,-1000.000,66.895,-613.281,-1000.000,-363.281,0
1012.751,-184.082,-297.852,-770.996,-486.328,-687.500,0
1012.755,-808.594,-1000.000,-996.582,-993.164,-982.422,0
1012.759,270.508,-781.250,-902.344,123.047,-767.578,0
1012.763,-1000.000,-53.711,-663.574,-1000.000,-462.891,0
1012.767,-567.383,-100.586,-712.402,-968.750,-549.805,0
1012.771,-925.293,-850.098,-955.078,511.230,-825.195,0
1012.775,314.941,-951.660,-972.656,408.203,-911.621,0
1012.779,-1000.000,-242.188,-666.504,-1000.000,-170.410,0
1012.782,-1000.000,73.730,-571.289,-1000.000,-62.500,0
1012.786,372.070,-592.285,-886.230,13.184,-798.340,0
1012.790,817.871,-1000.000,-1000.000,703.613,-1000.000,0
1012.794,-756.836,-512.695,-843.262,-746.582,-709.473,0
1012.798,-1000.000,99.609,-618.164,-1000.000,-285.645,0
1012.802,-153.809,-400.879,-782.227,-201.172,-570.312,0
1012.806,-850.098,-1000.000,-1000.000,-943.848,-1000.000,0
1012.810,-47.852,-688.477,-902.344,-142.090,-851.562,0
1012.814,-1000.000,55.664,-638.672,-1000.000,-431.641,0
1012.818,-221.191,-212.402,-701.660,-618.164,-340.820,0
1012.822,-812.012,-997.070,-985.352,930.176,-848.145,0
1012.825,274.902,-828.613,-939.453,271.484,-893.555,0
1012.829,-1000.000,-106.934,-727.051,-1000.000,-631.348,0
1012.833,-709.473,-23.926,-663.086,-1000.000,-353.027,0
1012.837,948.730,-752.930,-876.465,401.855,-492.188,0
1012.841,460.449,-989.746,-992.188,447.266,-959.961,0
1012.845,-1000.000,-331.055,-800.781,-985.352,-680.176,0
1012.849,-1000.000,68.848,-678.711,-1000.000,-510.742,0
1012.853,224.609,-527.344,-865.723,-61.035,-768.066,0
1012.857,959.961,-1000.000,-1000.000,854.004,-960.449,0
1012.861,-563.477,-567.383,-859.375,-559.082,-675.781,0
1012.864,-1000.000,94.238,-641.602,-1000.000,-317.871,0
1012.868,-166.016,-355.957,-778.320,-284.180,-505.859,0
1012.872,-832.520,-1000.000,-999.023,-897.461,-817.871,0
1012.876,68.359,-731.445,-911.621,48.828,-640.137,0
1012.880,-1000.000,-1.953,-706.055,-1000.000,-542.969,0
1012.884,-350.586,-195.312,-772.461,-807.129,-673.340,0
1012.888,-847.656,-957.031,-982.910,735.840,-942.871,0
1012.892,281.250,-870.117,-951.660,313.965,-891.113,0
1012.896,-1000.000,-156.250,-733.887,-1000.000,-594.238,0
1012.900,-856.934,8.301,-685.547,-1000.000,-541.504,0
1012.904,761.230,-698.730,-920.410,166.504,-864.258,0
1012.907,591.309,-1000.000,-982.422,536.621,-896.484,0
1012.911,-941.895,-382.324,-764.160,-915.039,-419.434,0
1012.915,-1000.000,105.469,-603.516,-1000.000,-210.938,0
1012.919,74.707,-462.402,-801.758,-96.680,-567.871,0
1012.923,-937.500,-1000.000,-1000.000,926.270,-1000.000,0
1012.927,-369.629,-605.469,-833.496,-434.570,-597.656,0
1012.931,-1000.000,100.098,-560.547,-1000.000,6.836,0
1012.935,-176.270,-329.102,-771.973,-396.973,-542.969,0
1012.939,-817.383,-1000.000,-1000.000,-934.570,-1000.000,0
1012.943,191.895,-765.625,-918.945,137.695,-854.492,0
1012.947,-1000.000,-35.645,-671.387,-1000.000,-452.148,0
1012.950,-487.305,-135.742,-711.914,-922.852,-493.164,0
1012.954,-895.020,-898.926,-974.609,585.938,-930.664,0
1012.958,287.598,-913.086,-947.754,359.863,-840.820,0
1012.962,-1000.000,-212.402,-704.590,-1000.000,-414.062,0
1012.966,-983.887,68.848,-552.734,-1000.000,-45.898,0
1012.970,556.152,-599.121,-802.246,86.914,-419.434,0
1012.974,705.078,-1000.000,-1000.000,609.375,-1000.000,0
1012.978,-873.535,-464.355,-809.570,-851.562,-634.766,0
1012.982,-1000.000,86.914,-629.883,-1000.000,-403.320,0
1012.986,-82.520,-433.594,-795.410,-153.809,-634.766,0
1012.989,-859.375,-1000.000,-1000.000,-976.074,-1000.000,0
1012.993,-156.250,-668.457,-891.113,-245.117,-807.617,0
1012.997,-1000.000,29.297,-675.781,-1000.000,-524.414,0
1013.001,-184.570,-299.316,-783.691,-494.629,-566.895,0
1013.005,-807.129,-1000.000,-995.117,-966.309,-860.352,0
1013.009,276.855,-798.828,-916.992,234.375,-810.547,0
1013.013,-1000.000,-82.031,-697.266,-1000.000,-462.891,0
1013.017,-597.168,-95.215,-734.863,-1000.000,-592.285,0
1013.021,-939.941,-832.031,-957.520,418.945,-852.539,0
1013.025,371.582,-962.402,-976.074,413.086,-751.953,0
1013.029,-1000.000,-291.992,-784.668,-1000.000,-564.453,0
1013.032,-1000.000,62.012,-672.363,-1000.000,-556.152,0
1013.036,344.727,-558.105,-870.605,-14.160,-783.691,0
1013.040,862.793,-1000.000,-1000.000,701.660,-987.793,0
1013.044,-707.520,-524.414,-855.469,-738.281,-776.855,0
1013.048,-1000.000,98.145,-660.156,-1000.000,-514.648,0
1013.052,-161.133,-383.301,-790.527,-219.727,-579.590,0
1013.056,-844.238,-1000.000,-1000.000,-927.246,-1000.000,0
1013.060,-1.465,-674.805,-832.031,-84.961,-525.391,0
1013.064,-1000.000,60.547,-591.797,-1000.000,-83.008,0
1013.068,-267.090,-238.770,-783.691,-690.918,-662.109,0
1013.072,-823.242,-993.164,-993.164,843.750,-993.652,0
1013.075,278.809,-838.379,-936.035,226.074,-845.703,0
1013.079,-1000.000,-120.605,-712.891,-1000.000,-459.961,0
1013.083,-746.094,-35.156,-720.215,-1000.000,-551.270,0
1013.087,908.203,-755.371,-940.430,267.090,-870.605,0
1013.091,500.488,-1000.000,-992.188,469.727,-980.469,0
1013.095,-986.816,-340.820,-776.855,-962.891,-553.711,0
1013.099,-1000.000,113.281,-590.332,-1000.000,-192.383,0
1013.103,181.152,-488.770,-819.336,-68.359,-607.910,0
1013.107,-991.211,-1000.000,-1000.000,834.961,-986.816,0
1013.111,-484.375,-584.961,-878.906,-570.801,-837.402,0
1013.114,-1000.000,108.887,-607.422,-1000.000,-312.988,0
1013.118,-171.387,-312.988,-700.684,-329.102,-238.281,0
1013.122,-824.219,-1000.000,-998.047,-925.781,-930.664,0
1013.126,131.836,-743.164,-919.922,48.340,-891.113,0
1013.130,-1000.000,-12.207,-695.801,-1000.000,-549.316,0
1013.134,-395.996,-175.293,-747.070,-827.637,-522.461,0
1013.138,-858.887,-936.523,-973.145,708.984,-859.863,0
1013.142,282.715,-890.137,-961.426,328.125,-925.293,0
1013.146,-1000.000,-177.734,-712.891,-1000.000,-400.391,0
1013.150,-898.438,11.230,-658.203,-1000.000,-357.422,0
1013.154,700.684,-681.641,-909.668,187.500,-614.746,0
1013.157,618.164,-1000.000,-997.070,567.383,-805.664,0
1013.161,-927.246,-431.641,-828.125,-903.320,-736.816,0
1013.165,-1000.000,80.566,-665.527,-1000.000,-527.832,0
1013.169,11.719,-460.938,-829.102,-120.117,-764.648,0
1013.173,-896.973,-1000.000,-1000.000,980.469,-1000.000,0
1013.177,-274.414,-633.301,-874.512,-342.773,-802.246,0
1013.181,-1000.000,66.895,-645.996,-1000.000,-509.766,0
1013.185,-181.152,-310.547,-769.043,-443.848,-670.898,0
1013.189,-811.523,-1000.000,-1000.000,-944.824,-982.910,0
1013.193,245.117,-772.949,-898.926,208.984,-721.191,0
1013.197,-1000.000,-36.621,-631.836,-1000.000,-306.152,0
1013.200,-525.391,-121.582,-701.660,-943.359,-464.355,0
1013.204,-905.762,-884.766,-980.469,572.754,-954.102,0
1013.208,283.691,-922.852,-925.293,398.926,-743.652,0
1013.212,-1000.000,-219.727,-645.508,-1000.000,-108.887,0
1013.216,-1000.000,47.363,-609.375,-1000.000,-221.191,0
1013.220,440.918,-605.957,-866.211,65.430,-690.918,0
1013.224,739.746,-1000.000,-1000.000,699.219,-1000.000,0
1013.228,-841.797,-488.770,-812.988,-769.531,-633.301,0
1013.232,-1000.000,90.332,-626.465,-1000.000,-396.484,0
1013.236,-136.719,-424.316,-809.082,-174.316,-736.328,0
1013.239,-854.980,-1000.000,-999.512,-937.012,-986.816,0
1013.243,-88.867,-677.734,-890.137,-157.227,-810.547,0
1013.247,-1000.000,78.125,-566.406,-1000.000,-140.625,0
1013.251,-188.477,-224.609,-660.645,-636.719,-184.082,0
1013.255,-803.711,-1000.000,-996.582,887.207,-954.102,0
1013.259,273.438,-817.383,-939.453,258.789,-908.691,0
1013.263,-1000.000,-89.844,-697.754,-1000.000,-520.508,0
1013.267,-655.762,-53.223,-685.059,-1000.000,-428.711,0
1013.271,-992.676,-799.805,-942.871,356.934,-844.238,0
1013.275,400.879,-976.074,-982.422,424.316,-941.895,0
1013.279,-1000.000,-316.406,-800.293,-991.211,-661.621,0
1013.282,-1000.000,76.172,-649.414,-1000.000,-404.785,0
1013.286,256.836,-522.461,-822.266,-26.855,-562.500,0
1013.290,907.715,-1000.000,-1000.000,730.469,-994.141,0
1013.294,-637.207,-544.434,-860.840,-708.984,-742.188,0
1013.298,-1000.000,95.215,-666.992,-1000.000,-525.391,0
1013.302,-164.551,-374.512,-810.059,-249.023,-538.086,0
1013.306,-836.426,-1000.000,-1000.000,-946.289,-758.789,0
1013.310,43.945,-708.496,-905.762,-108.887,-844.238,0
1013.314,-1000.000,37.598,-681.641,-1000.000,-518.555,0
1013.318,-309.570,-186.523,-762.207,-790.527,-609.863,0
1013.322,-833.008,-966.309,-984.375,729.980,-939.453,0
1013.325,278.320,-857.910,-953.125,301.758,-907.227,0
1013.329,-1000.000,-130.371,-722.168,-1000.000,-518.066,0
1013.333,-818.848,20.508,-646.973,-1000.000,-293.945,0
1013.337,813.965,-707.520,-913.086,212.402,-749.512,0
1013.341,547.852,-1000.000,-957.031,539.551,-734.863,0
1013.345,-963.867,-359.375,-743.164,-921.387,-283.203,0
1013.349,-1000.000,83.984,-676.758,-1000.000,-508.789,0
1013.353,109.863,-487.305,-856.445,-94.727,-804.688,0
1013.357,-954.102,-1000.000,-998.535,916.016,-967.285,0
1013.361,-407.715,-599.121,-858.398,-446.777,-677.246,0
1013.364,-1000.000,76.172,-667.969,-1000.000,-499.512,0
1013.368,-174.805,-338.867,-796.387,-374.512,-696.777,0
1013.372,-819.336,-1000.000,-1000.000,-926.270,-1000.000,0
1013.376,167.969,-750.977,-900.879,115.723,-777.832,0
1013.380,-1000.000,-9.277,-630.371,-1000.000,-266.602,0
1013.384,-447.266,-141.602,-697.266,-873.535,-363.770,0
1013.388,-877.930,-911.621,-964.355,654.297,-840.332,0
1013.392,284.180,-905.762,-962.891,315.918,-903.809,0
1013.396,-1000.000,-191.895,-687.988,-1000.000,-326.172,0
1013.400,-958.496,50.781,-565.918,-1000.000,-55.176,0
1013.404,600.098,-645.996,-873.535,104.004,-694.336,0
1013.407,678.711,-1000.000,-1000.000,613.770,-1000.000,0
1013.411,-891.602,-453.613,-820.801,-853.516,-711.426,0
1013.415,-1000.000,89.355,-626.953,-1000.000,-425.293,0
1013.419,-37.109,-442.383,-800.293,-145.020,-671.875,0
1013.423,-863.770,-1000.000,-1000.000,-952.148,-1000.000,0
1013.427,-191.406,-650.391,-854.492,-211.426,-657.715,0
1013.431,-1000.000,60.547,-604.980,-1000.000,-301.758,0
1013.435,-185.059,-283.691,-711.914,-411.133,-218.750,0
1013.439,-807.617,-1000.000,-976.074,-909.180,-644.531,0
1013.443,275.879,-799.805,-935.547,217.773,-912.598,0
1013.447,-1000.000,-85.449,-709.961,-1000.000,-603.027,0
1013.450,-578.125,-101.074,-706.055,-958.496,-480.957,0
1013.454,-930.176,-839.355,-937.012,557.617,-726.074,0
1013.458,336.426,-955.078,-977.539,401.367,-949.707,0
1013.462,-1000.000,-285.645,-768.066,-1000.000,-653.809,0
1013.466,-1000.000,37.598,-661.133,-1000.000,-533.203,0
1013.470,374.512,-584.473,-873.047,12.207,-800.781,0
1013.474,834.473,-1000.000,-1000.000,754.395,-987.793,0
1013.478,-737.793,-507.324,-807.617,-705.566,-608.398,0
1013.482,-1000.000,89.844,-627.930,-1000.000,-409.668,0
1013.486,-155.762,-413.086,-813.965,-209.473,-780.762,0
1013.489,-850.586,-1000.000,-999.023,-883.301,-922.852,0
1013.493,-44.434,-687.988,-846.680,9.277,-483.887,0
1013.497,-1000.000,26.855,-660.156,-1000.000,-404.785,0
1013.501,-233.887,-252.930,-787.109,-631.348,-683.594,0
1013.505,-815.918,-1000.000,-990.723,941.406,-976.074,0
1013.509,276.367,-826.660,-924.316,288.086,-791.016,0
1013.513,-1000.000,-104.004,-686.523,-1000.000,-369.629,0
1013.517,-713.867,-41.016,-707.520,-1000.000,-480.469,0
1013.521,943.359,-768.555,-939.453,371.094,-801.758,0
1013.525,480.957,-995.605,-998.535,464.355,-1000.000,0
1013.529,-994.629,-309.570,-720.703,-975.098,-336.914,0
1013.532,-1000.000,118.652,-567.383,-1000.000,-75.195,0
1013.536,221.191,-512.695,-861.816,-62.988,-789.062,0
1013.540,975.098,-1000.000,-1000.000,830.566,-1000.000,0
1013.544,-543.457,-566.895,-857.910,-581.055,-742.188,0
1013.548,-1000.000,98.145,-648.438,-1000.000,-404.297,0
1013.552,-167.969,-361.328,-804.688,-298.828,-696.777,0
1013.556,-829.590,-1000.000,-998.047,-914.551,-1000.000,0
1013.560,93.262,-731.934,-919.434,25.879,-870.117,0
1013.564,-1000.000,9.766,-672.852,-1000.000,-465.332,0
1013.568,-368.164,-166.016,-704.590,-825.195,-325.684,0
1013.572,-852.051,-947.266,-974.609,693.359,-823.242,0
1013.575,282.227,-878.906,-957.031,332.520,-910.156,0
1013.579,-1000.000,-183.594,-767.090,-1000.000,-660.156,0
1013.583,-869.629,3.906,-662.109,-1000.000,-355.469,0
1013.587,743.652,-675.293,-848.633,265.137,-461.426,0
1013.591,600.098,-1000.000,-999.023,571.289,-971.680,0
1013.595,-937.012,-410.645,-814.941,-913.086,-717.285,0
1013.599,-1000.000,81.543,-653.809,-1000.000,-512.695,0
1013.603,59.570,-472.656,-830.566,-83.984,-724.609,0
1013.607,-931.152,-1000.000,-1000.000,897.461,-995.605,0
1013.611,-354.492,-623.535,-875.000,-480.957,-794.434,0
1013.614,-1000.000,73.242,-617.676,-1000.000,-346.191,0
1013.618,-177.246,-315.918,-741.211,-367.188,-458.496,0
1013.622,-816.406,-1000.000,-998.047,-903.320,-789.062,0
1013.626,205.078,-773.438,-916.504,197.754,-661.621,0
1013.630,-1000.000,-49.316,-676.758,-1000.000,-446.777,0
1013.634,-495.605,-159.668,-739.746,-894.531,-582.520,0
1013.638,-896.484,-904.297,-975.586,653.809,-930.176,0
1013.642,286.621,-923.340,-962.402,367.188,-910.156,0
1013.646,-1000.000,-243.652,-752.441,-1000.000,-616.211,0
1013.650,-997.070,23.926,-662.598,-1000.000,-523.438,0
1013.654,532.227,-627.441,-890.625,73.730,-833.496,0
1013.657,711.426,-1000.000,-987.305,745.605,-923.340,0
1013.661,-869.141,-466.797,-766.113,-731.934,-456.543,0
1013.665,-1000.000,93.750,-593.750,-1000.000,-263.672,0
1013.669,-93.750,-433.105,-792.480,-150.879,-637.207,0
1013.673,-854.004,-1000.000,-1000.000,-931.152,-1000.000,0
1013.677,-129.883,-649.414,-833.496,-161.133,-626.465,0
1013.681,-1000.000,92.285,-532.227,-1000.000,-20.996,0
1013.685,-186.523,-270.020,-739.258,-517.578,-525.879,0
1013.689,-806.152,-1000.000,-1000.000,-976.074,-1000.000,0
1013.693,276.367,-811.035,-932.129,253.418,-877.930,0
1013.697,-1000.000,-90.820,-690.430,-1000.000,-484.375,0
1013.700,-607.422,-83.008,-704.102,-1000.000,-489.746,0
1013.704,-944.824,-826.660,-959.473,451.172,-910.645,0
1013.708,379.395,-962.402,-965.820,425.293,-871.582,0
1013.712,-1000.000,-288.574,-744.629,-997.559,-457.031,0
1013.716,-1000.000,92.773,-563.965,-1000.000,-50.293,0
1013.720,311.523,-526.855,-783.691,-17.090,-394.531,0
1013.724,888.184,-1000.000,-1000.000,779.297,-1000.000,0
1013.728,-671.875,-541.992,-860.352,-660.645,-789.062,0
1013.732,-1000.000,94.238,-654.297,-1000.000,-495.117,0
1013.736,-164.062,-375.488,-783.691,-236.328,-620.605,0
1013.739,-838.379,-1000.000,-998.047,-917.480,-988.281,0
1013.743,29.785,-706.055,-909.668,-43.457,-863.281,0
1013.747,-1000.000,35.645,-664.551,-1000.000,-463.867,0
1013.751,-282.227,-201.660,-728.516,-649.902,-362.305,0
1013.755,-825.195,-978.027,-982.422,920.410,-801.758,0
1013.759,279.785,-848.145,-940.918,295.410,-863.770,0
1013.763,-1000.000,-132.812,-731.445,-1000.000,-521.973,0
1013.767,-753.906,-26.367,-723.633,-1000.000,-591.309,0
1013.771,899.414,-741.211,-935.059,275.879,-826.172,0
1013.775,507.324,-1000.000,-990.234,514.648,-802.246,0
1013.779,-981.445,-371.582,-821.777,-943.359,-626.953,0
1013.782,-1000.000,72.266,-688.965,-1000.000,-567.383,0
1013.786,151.367,-500.488,-859.375,-83.496,-786.133,0
1013.790,-974.609,-1000.000,-1000.000,895.020,-997.070,0
1013.794,-451.172,-591.309,-874.512,-490.234,-801.758,0
1013.798,-1000.000,89.355,-659.668,-1000.000,-521.973,0
1013.802,-173.340,-332.031,-769.043,-313.477,-530.762,0
1013.806,-821.289,-1000.000,-1000.000,-891.113,-992.676,0
1013.810,148.926,-724.121,-847.656,133.301,-578.613,0
1013.814,-1000.000,16.602,-594.727,-1000.000,-100.098,0
1013.818,-405.273,-176.758,-761.719,-833.984,-629.395,0
1013.822,-859.863,-936.035,-984.863,721.191,-968.750,0
1013.825,281.250,-889.160,-947.266,327.148,-864.258,0
1013.829,-1000.000,-186.035,-723.145,-1000.000,-483.398,0
1013.833,-919.434,2.930,-691.406,-1000.000,-534.668,0
1013.837,665.527,-676.270,-912.109,148.438,-836.914,0
1013.841,642.090,-1000.000,-1000.000,619.629,-994.141,0
1013.845,-912.598,-435.059,-801.758,-859.863,-620.117,0
1013.849,-1000.000,101.562,-585.938,-1000.000,-223.145,0
1013.853,-14.648,-447.754,-792.480,-123.535,-574.219,0
1013.857,-878.906,-1000.000,-1000.000,-975.586,-982.422,0
1013.861,-229.492,-651.367,-892.578,-270.020,-862.793,0
1013.864,-1000.000,66.406,-611.816,-1000.000,-313.477,0
1013.868,-183.594,-278.320,-681.152,-433.105,-172.852,0
1013.872,-809.082,-1000.000,-990.723,-930.176,-885.742,0
1013.876,263.184,-788.086,-930.176,208.984,-909.180,0
1013.880,-1000.000,-65.918,-696.289,-1000.000,-561.035,0
1013.884,-534.180,-113.281,-708.496,-1000.000,-494.141,0
1013.888,-907.715,-860.352,-950.195,483.398,-817.871,0
1013.892,289.062,-943.848,-970.703,406.738,-939.453,0
1013.896,-1000.000,-254.883,-727.539,-1000.000,-472.168,0
1013.900,-1000.000,54.199,-609.375,-1000.000,-284.668,0
1013.904,414.551,-589.844,-848.633,61.523,-475.586,0
1013.907,793.457,-1000.000,-1000.000,747.559,-830.566,0
1013.911,-783.691,-512.207,-849.609,-724.121,-786.133,0
1013.915,-1000.000,74.707,-669.922,-1000.000,-534.668,0
1013.919,-142.578,-422.363,-816.406,-147.461,-756.836,0
1013.923,-849.609,-1000.000,-1000.000,-1000.000,-1000.000,0
1013.927,-65.430,-681.641,-880.859,-244.141,-740.723,0
1013.931,-1000.000,33.203,-665.527,-1000.000,-484.375,0
1013.935,-190.430,-264.648,-775.391,-572.266,-677.246,0
